# E (eV)   ldos(E)   pdos(E)   
  5.903 -0.399E-08 -0.399E-08
  6.003 -0.742E-07 -0.742E-07
  6.103 -0.103E-05 -0.103E-05
  6.203 -0.106E-04 -0.106E-04
  6.303 -0.804E-04 -0.804E-04
  6.403 -0.440E-03 -0.440E-03
  6.503 -0.169E-02 -0.169E-02
  6.603 -0.421E-02 -0.421E-02
  6.703 -0.517E-02 -0.517E-02
  6.803  0.493E-02  0.493E-02
  6.903  0.353E-01  0.353E-01
  7.003  0.758E-01  0.758E-01
  7.103  0.953E-01  0.953E-01
  7.203  0.795E-01  0.795E-01
  7.303  0.538E-01  0.538E-01
  7.403  0.462E-01  0.462E-01
  7.503  0.514E-01  0.514E-01
  7.603  0.679E-01  0.679E-01
  7.703  0.137E+00  0.137E+00
  7.803  0.274E+00  0.274E+00
  7.903  0.390E+00  0.390E+00
  8.003  0.368E+00  0.368E+00

