# E (eV)   ldos(E)   pdos(E)    pdos(E)    pdos(E)   
 -3.097  0.118E+00  0.392E-01  0.392E-01  0.392E-01
 -3.087  0.121E+00  0.403E-01  0.403E-01  0.403E-01
 -3.077  0.125E+00  0.416E-01  0.416E-01  0.416E-01
 -3.067  0.129E+00  0.430E-01  0.430E-01  0.430E-01
 -3.057  0.134E+00  0.446E-01  0.446E-01  0.446E-01
 -3.047  0.139E+00  0.462E-01  0.462E-01  0.462E-01
 -3.037  0.144E+00  0.480E-01  0.480E-01  0.480E-01
 -3.027  0.150E+00  0.499E-01  0.499E-01  0.499E-01
 -3.017  0.156E+00  0.518E-01  0.518E-01  0.518E-01
 -3.007  0.162E+00  0.539E-01  0.539E-01  0.539E-01
 -2.997  0.168E+00  0.560E-01  0.560E-01  0.560E-01
 -2.987  0.175E+00  0.582E-01  0.582E-01  0.582E-01
 -2.977  0.181E+00  0.605E-01  0.605E-01  0.605E-01
 -2.967  0.188E+00  0.627E-01  0.627E-01  0.627E-01
 -2.957  0.195E+00  0.650E-01  0.650E-01  0.650E-01
 -2.947  0.202E+00  0.673E-01  0.673E-01  0.673E-01
 -2.937  0.209E+00  0.696E-01  0.696E-01  0.696E-01
 -2.927  0.215E+00  0.718E-01  0.718E-01  0.718E-01
 -2.917  0.222E+00  0.740E-01  0.740E-01  0.740E-01
 -2.907  0.228E+00  0.761E-01  0.761E-01  0.761E-01
 -2.897  0.235E+00  0.782E-01  0.782E-01  0.782E-01
 -2.887  0.240E+00  0.801E-01  0.801E-01  0.801E-01
 -2.877  0.246E+00  0.819E-01  0.819E-01  0.819E-01
 -2.867  0.251E+00  0.836E-01  0.836E-01  0.836E-01
 -2.857  0.255E+00  0.851E-01  0.851E-01  0.851E-01
 -2.847  0.259E+00  0.865E-01  0.865E-01  0.865E-01
 -2.837  0.263E+00  0.877E-01  0.877E-01  0.877E-01
 -2.827  0.266E+00  0.886E-01  0.886E-01  0.886E-01
 -2.817  0.268E+00  0.894E-01  0.894E-01  0.894E-01
 -2.807  0.270E+00  0.900E-01  0.900E-01  0.900E-01
 -2.797  0.271E+00  0.903E-01  0.903E-01  0.903E-01
 -2.787  0.271E+00  0.905E-01  0.905E-01  0.905E-01
 -2.777  0.271E+00  0.904E-01  0.904E-01  0.904E-01
 -2.767  0.270E+00  0.901E-01  0.901E-01  0.901E-01
 -2.757  0.269E+00  0.895E-01  0.895E-01  0.895E-01
 -2.747  0.266E+00  0.887E-01  0.887E-01  0.887E-01
 -2.737  0.263E+00  0.878E-01  0.878E-01  0.878E-01
 -2.727  0.260E+00  0.866E-01  0.866E-01  0.866E-01
 -2.717  0.255E+00  0.851E-01  0.851E-01  0.851E-01
 -2.707  0.251E+00  0.835E-01  0.835E-01  0.835E-01
 -2.697  0.245E+00  0.818E-01  0.818E-01  0.818E-01
 -2.687  0.239E+00  0.798E-01  0.798E-01  0.798E-01
 -2.677  0.233E+00  0.777E-01  0.777E-01  0.777E-01
 -2.667  0.226E+00  0.754E-01  0.754E-01  0.754E-01
 -2.657  0.219E+00  0.730E-01  0.730E-01  0.730E-01
 -2.647  0.212E+00  0.705E-01  0.705E-01  0.705E-01
 -2.637  0.204E+00  0.679E-01  0.679E-01  0.679E-01
 -2.627  0.196E+00  0.653E-01  0.653E-01  0.653E-01
 -2.617  0.188E+00  0.625E-01  0.625E-01  0.625E-01
 -2.607  0.179E+00  0.597E-01  0.597E-01  0.597E-01
 -2.597  0.171E+00  0.569E-01  0.569E-01  0.569E-01
 -2.587  0.162E+00  0.541E-01  0.541E-01  0.541E-01
 -2.577  0.154E+00  0.513E-01  0.513E-01  0.513E-01
 -2.567  0.145E+00  0.485E-01  0.485E-01  0.485E-01
 -2.557  0.137E+00  0.457E-01  0.457E-01  0.457E-01
 -2.547  0.129E+00  0.430E-01  0.430E-01  0.430E-01
 -2.537  0.121E+00  0.403E-01  0.403E-01  0.403E-01
 -2.527  0.113E+00  0.377E-01  0.377E-01  0.377E-01
 -2.517  0.105E+00  0.352E-01  0.352E-01  0.352E-01
 -2.507  0.981E-01  0.327E-01  0.327E-01  0.327E-01
 -2.497  0.910E-01  0.303E-01  0.303E-01  0.303E-01
 -2.487  0.842E-01  0.281E-01  0.281E-01  0.281E-01
 -2.477  0.777E-01  0.259E-01  0.259E-01  0.259E-01
 -2.467  0.715E-01  0.238E-01  0.238E-01  0.238E-01
 -2.457  0.657E-01  0.219E-01  0.219E-01  0.219E-01
 -2.447  0.601E-01  0.200E-01  0.200E-01  0.200E-01
 -2.437  0.549E-01  0.183E-01  0.183E-01  0.183E-01
 -2.427  0.499E-01  0.166E-01  0.166E-01  0.166E-01
 -2.417  0.453E-01  0.151E-01  0.151E-01  0.151E-01
 -2.407  0.411E-01  0.137E-01  0.137E-01  0.137E-01
 -2.397  0.371E-01  0.124E-01  0.124E-01  0.124E-01
 -2.387  0.334E-01  0.111E-01  0.111E-01  0.111E-01
 -2.377  0.300E-01  0.100E-01  0.100E-01  0.100E-01
 -2.367  0.269E-01  0.896E-02  0.896E-02  0.896E-02
 -2.357  0.240E-01  0.800E-02  0.800E-02  0.800E-02
 -2.347  0.214E-01  0.713E-02  0.713E-02  0.713E-02
 -2.337  0.190E-01  0.633E-02  0.633E-02  0.633E-02
 -2.327  0.168E-01  0.561E-02  0.561E-02  0.561E-02
 -2.317  0.149E-01  0.496E-02  0.496E-02  0.496E-02
 -2.307  0.131E-01  0.437E-02  0.437E-02  0.437E-02
 -2.297  0.115E-01  0.384E-02  0.384E-02  0.384E-02
 -2.287  0.101E-01  0.337E-02  0.337E-02  0.337E-02
 -2.277  0.884E-02  0.295E-02  0.295E-02  0.295E-02
 -2.267  0.771E-02  0.257E-02  0.257E-02  0.257E-02
 -2.257  0.670E-02  0.223E-02  0.223E-02  0.223E-02
 -2.247  0.581E-02  0.194E-02  0.194E-02  0.194E-02
 -2.237  0.503E-02  0.168E-02  0.168E-02  0.168E-02
 -2.227  0.434E-02  0.145E-02  0.145E-02  0.145E-02
 -2.217  0.373E-02  0.124E-02  0.124E-02  0.124E-02
 -2.207  0.320E-02  0.107E-02  0.107E-02  0.107E-02
 -2.197  0.274E-02  0.914E-03  0.914E-03  0.914E-03
 -2.187  0.234E-02  0.781E-03  0.781E-03  0.781E-03
 -2.177  0.200E-02  0.665E-03  0.665E-03  0.665E-03
 -2.167  0.170E-02  0.566E-03  0.566E-03  0.566E-03
 -2.157  0.144E-02  0.480E-03  0.480E-03  0.480E-03
 -2.147  0.122E-02  0.407E-03  0.407E-03  0.407E-03
 -2.137  0.103E-02  0.345E-03  0.345E-03  0.345E-03
 -2.127  0.876E-03  0.292E-03  0.292E-03  0.292E-03
 -2.117  0.743E-03  0.248E-03  0.248E-03  0.248E-03
 -2.107  0.632E-03  0.211E-03  0.211E-03  0.211E-03
 -2.097  0.541E-03  0.180E-03  0.180E-03  0.180E-03
 -2.087  0.467E-03  0.156E-03  0.156E-03  0.156E-03
 -2.077  0.408E-03  0.136E-03  0.136E-03  0.136E-03
 -2.067  0.364E-03  0.121E-03  0.121E-03  0.121E-03
 -2.057  0.332E-03  0.111E-03  0.111E-03  0.111E-03
 -2.047  0.312E-03  0.104E-03  0.104E-03  0.104E-03
 -2.037  0.302E-03  0.101E-03  0.101E-03  0.101E-03
 -2.027  0.304E-03  0.101E-03  0.101E-03  0.101E-03
 -2.017  0.316E-03  0.105E-03  0.105E-03  0.105E-03
 -2.007  0.338E-03  0.113E-03  0.113E-03  0.113E-03
 -1.997  0.372E-03  0.124E-03  0.124E-03  0.124E-03
 -1.987  0.418E-03  0.139E-03  0.139E-03  0.139E-03
 -1.977  0.476E-03  0.159E-03  0.159E-03  0.159E-03
 -1.967  0.548E-03  0.183E-03  0.183E-03  0.183E-03
 -1.957  0.635E-03  0.212E-03  0.212E-03  0.212E-03
 -1.947  0.739E-03  0.246E-03  0.246E-03  0.246E-03
 -1.937  0.862E-03  0.287E-03  0.287E-03  0.287E-03
 -1.927  0.101E-02  0.335E-03  0.335E-03  0.335E-03
 -1.917  0.117E-02  0.391E-03  0.391E-03  0.391E-03
 -1.907  0.137E-02  0.456E-03  0.456E-03  0.456E-03
 -1.897  0.159E-02  0.530E-03  0.530E-03  0.530E-03
 -1.887  0.185E-02  0.616E-03  0.616E-03  0.616E-03
 -1.877  0.214E-02  0.714E-03  0.714E-03  0.714E-03
 -1.867  0.248E-02  0.826E-03  0.826E-03  0.826E-03
 -1.857  0.286E-02  0.953E-03  0.953E-03  0.953E-03
 -1.847  0.329E-02  0.110E-02  0.110E-02  0.110E-02
 -1.837  0.378E-02  0.126E-02  0.126E-02  0.126E-02
 -1.827  0.433E-02  0.144E-02  0.144E-02  0.144E-02
 -1.817  0.495E-02  0.165E-02  0.165E-02  0.165E-02
 -1.807  0.564E-02  0.188E-02  0.188E-02  0.188E-02
 -1.797  0.642E-02  0.214E-02  0.214E-02  0.214E-02
 -1.787  0.728E-02  0.243E-02  0.243E-02  0.243E-02
 -1.777  0.824E-02  0.275E-02  0.275E-02  0.275E-02
 -1.767  0.931E-02  0.310E-02  0.310E-02  0.310E-02
 -1.757  0.105E-01  0.349E-02  0.349E-02  0.349E-02
 -1.747  0.118E-01  0.393E-02  0.393E-02  0.393E-02
 -1.737  0.132E-01  0.440E-02  0.440E-02  0.440E-02
 -1.727  0.148E-01  0.492E-02  0.492E-02  0.492E-02
 -1.717  0.165E-01  0.549E-02  0.549E-02  0.549E-02
 -1.707  0.183E-01  0.611E-02  0.611E-02  0.611E-02
 -1.697  0.204E-01  0.678E-02  0.678E-02  0.678E-02
 -1.687  0.225E-01  0.751E-02  0.751E-02  0.751E-02
 -1.677  0.249E-01  0.830E-02  0.830E-02  0.830E-02
 -1.667  0.275E-01  0.915E-02  0.915E-02  0.915E-02
 -1.657  0.302E-01  0.101E-01  0.101E-01  0.101E-01
 -1.647  0.331E-01  0.110E-01  0.110E-01  0.110E-01
 -1.637  0.363E-01  0.121E-01  0.121E-01  0.121E-01
 -1.627  0.396E-01  0.132E-01  0.132E-01  0.132E-01
 -1.617  0.432E-01  0.144E-01  0.144E-01  0.144E-01
 -1.607  0.470E-01  0.157E-01  0.157E-01  0.157E-01
 -1.597  0.509E-01  0.170E-01  0.170E-01  0.170E-01
 -1.587  0.551E-01  0.184E-01  0.184E-01  0.184E-01
 -1.577  0.595E-01  0.198E-01  0.198E-01  0.198E-01
 -1.567  0.642E-01  0.214E-01  0.214E-01  0.214E-01
 -1.557  0.690E-01  0.230E-01  0.230E-01  0.230E-01
 -1.547  0.740E-01  0.247E-01  0.247E-01  0.247E-01
 -1.537  0.792E-01  0.264E-01  0.264E-01  0.264E-01
 -1.527  0.845E-01  0.282E-01  0.282E-01  0.282E-01
 -1.517  0.901E-01  0.300E-01  0.300E-01  0.300E-01
 -1.507  0.958E-01  0.319E-01  0.319E-01  0.319E-01
 -1.497  0.102E+00  0.339E-01  0.339E-01  0.339E-01
 -1.487  0.108E+00  0.358E-01  0.358E-01  0.358E-01
 -1.477  0.114E+00  0.379E-01  0.379E-01  0.379E-01
 -1.467  0.120E+00  0.399E-01  0.399E-01  0.399E-01
 -1.457  0.126E+00  0.419E-01  0.419E-01  0.419E-01
 -1.447  0.132E+00  0.440E-01  0.440E-01  0.440E-01
 -1.437  0.138E+00  0.461E-01  0.461E-01  0.461E-01
 -1.427  0.144E+00  0.481E-01  0.481E-01  0.481E-01
 -1.417  0.151E+00  0.502E-01  0.502E-01  0.502E-01
 -1.407  0.157E+00  0.522E-01  0.522E-01  0.522E-01
 -1.397  0.163E+00  0.542E-01  0.542E-01  0.542E-01
 -1.387  0.168E+00  0.561E-01  0.561E-01  0.561E-01
 -1.377  0.174E+00  0.580E-01  0.580E-01  0.580E-01
 -1.367  0.179E+00  0.598E-01  0.598E-01  0.598E-01
 -1.357  0.185E+00  0.615E-01  0.615E-01  0.615E-01
 -1.347  0.189E+00  0.632E-01  0.632E-01  0.632E-01
 -1.337  0.194E+00  0.647E-01  0.647E-01  0.647E-01
 -1.327  0.198E+00  0.661E-01  0.661E-01  0.661E-01
 -1.317  0.202E+00  0.675E-01  0.675E-01  0.675E-01
 -1.307  0.206E+00  0.687E-01  0.687E-01  0.687E-01
 -1.297  0.209E+00  0.697E-01  0.697E-01  0.697E-01
 -1.287  0.212E+00  0.707E-01  0.707E-01  0.707E-01
 -1.277  0.214E+00  0.714E-01  0.714E-01  0.714E-01
 -1.267  0.216E+00  0.721E-01  0.721E-01  0.721E-01
 -1.257  0.218E+00  0.726E-01  0.726E-01  0.726E-01
 -1.247  0.219E+00  0.729E-01  0.729E-01  0.729E-01
 -1.237  0.219E+00  0.730E-01  0.730E-01  0.730E-01
 -1.227  0.219E+00  0.731E-01  0.731E-01  0.731E-01
 -1.217  0.219E+00  0.729E-01  0.729E-01  0.729E-01
 -1.207  0.218E+00  0.726E-01  0.726E-01  0.726E-01
 -1.197  0.216E+00  0.721E-01  0.721E-01  0.721E-01
 -1.187  0.214E+00  0.715E-01  0.715E-01  0.715E-01
 -1.177  0.212E+00  0.707E-01  0.707E-01  0.707E-01
 -1.167  0.209E+00  0.697E-01  0.697E-01  0.697E-01
 -1.157  0.206E+00  0.687E-01  0.687E-01  0.687E-01
 -1.147  0.202E+00  0.675E-01  0.675E-01  0.675E-01
 -1.137  0.198E+00  0.661E-01  0.661E-01  0.661E-01
 -1.127  0.194E+00  0.647E-01  0.647E-01  0.647E-01
 -1.117  0.189E+00  0.631E-01  0.631E-01  0.631E-01
 -1.107  0.184E+00  0.615E-01  0.615E-01  0.615E-01
 -1.097  0.179E+00  0.597E-01  0.597E-01  0.597E-01
 -1.087  0.174E+00  0.579E-01  0.579E-01  0.579E-01
 -1.077  0.168E+00  0.561E-01  0.561E-01  0.561E-01
 -1.067  0.162E+00  0.541E-01  0.541E-01  0.541E-01
 -1.057  0.157E+00  0.522E-01  0.522E-01  0.522E-01
 -1.047  0.151E+00  0.502E-01  0.502E-01  0.502E-01
 -1.037  0.145E+00  0.482E-01  0.482E-01  0.482E-01
 -1.027  0.139E+00  0.462E-01  0.462E-01  0.462E-01
 -1.017  0.133E+00  0.443E-01  0.443E-01  0.443E-01
 -1.007  0.127E+00  0.423E-01  0.423E-01  0.423E-01
 -0.997  0.121E+00  0.404E-01  0.404E-01  0.404E-01
 -0.987  0.116E+00  0.385E-01  0.385E-01  0.385E-01
 -0.977  0.110E+00  0.367E-01  0.367E-01  0.367E-01
 -0.967  0.105E+00  0.349E-01  0.349E-01  0.349E-01
 -0.957  0.998E-01  0.333E-01  0.333E-01  0.333E-01
 -0.947  0.950E-01  0.317E-01  0.317E-01  0.317E-01
 -0.937  0.905E-01  0.302E-01  0.302E-01  0.302E-01
 -0.927  0.863E-01  0.288E-01  0.288E-01  0.288E-01
 -0.917  0.824E-01  0.275E-01  0.275E-01  0.275E-01
 -0.907  0.789E-01  0.263E-01  0.263E-01  0.263E-01
 -0.897  0.756E-01  0.252E-01  0.252E-01  0.252E-01
 -0.887  0.727E-01  0.242E-01  0.242E-01  0.242E-01
 -0.877  0.701E-01  0.234E-01  0.234E-01  0.234E-01
 -0.867  0.679E-01  0.226E-01  0.226E-01  0.226E-01
 -0.857  0.661E-01  0.220E-01  0.220E-01  0.220E-01
 -0.847  0.646E-01  0.215E-01  0.215E-01  0.215E-01
 -0.837  0.634E-01  0.211E-01  0.211E-01  0.211E-01
 -0.827  0.626E-01  0.209E-01  0.209E-01  0.209E-01
 -0.817  0.621E-01  0.207E-01  0.207E-01  0.207E-01
 -0.807  0.620E-01  0.207E-01  0.207E-01  0.207E-01
 -0.797  0.621E-01  0.207E-01  0.207E-01  0.207E-01
 -0.787  0.626E-01  0.209E-01  0.209E-01  0.209E-01
 -0.777  0.633E-01  0.211E-01  0.211E-01  0.211E-01
 -0.767  0.642E-01  0.214E-01  0.214E-01  0.214E-01
 -0.757  0.654E-01  0.218E-01  0.218E-01  0.218E-01
 -0.747  0.668E-01  0.223E-01  0.223E-01  0.223E-01
 -0.737  0.684E-01  0.228E-01  0.228E-01  0.228E-01
 -0.727  0.701E-01  0.234E-01  0.234E-01  0.234E-01
 -0.717  0.720E-01  0.240E-01  0.240E-01  0.240E-01
 -0.707  0.739E-01  0.246E-01  0.246E-01  0.246E-01
 -0.697  0.760E-01  0.253E-01  0.253E-01  0.253E-01
 -0.687  0.781E-01  0.260E-01  0.260E-01  0.260E-01
 -0.677  0.803E-01  0.268E-01  0.268E-01  0.268E-01
 -0.667  0.824E-01  0.275E-01  0.275E-01  0.275E-01
 -0.657  0.845E-01  0.282E-01  0.282E-01  0.282E-01
 -0.647  0.866E-01  0.289E-01  0.289E-01  0.289E-01
 -0.637  0.886E-01  0.295E-01  0.295E-01  0.295E-01
 -0.627  0.905E-01  0.302E-01  0.302E-01  0.302E-01
 -0.617  0.923E-01  0.308E-01  0.308E-01  0.308E-01
 -0.607  0.940E-01  0.313E-01  0.313E-01  0.313E-01
 -0.597  0.955E-01  0.318E-01  0.318E-01  0.318E-01
 -0.587  0.969E-01  0.323E-01  0.323E-01  0.323E-01
 -0.577  0.981E-01  0.327E-01  0.327E-01  0.327E-01
 -0.567  0.991E-01  0.330E-01  0.330E-01  0.330E-01
 -0.557  0.999E-01  0.333E-01  0.333E-01  0.333E-01
 -0.547  0.101E+00  0.335E-01  0.335E-01  0.335E-01
 -0.537  0.101E+00  0.337E-01  0.337E-01  0.337E-01
 -0.527  0.101E+00  0.338E-01  0.338E-01  0.338E-01
 -0.517  0.101E+00  0.338E-01  0.338E-01  0.338E-01
 -0.507  0.101E+00  0.338E-01  0.338E-01  0.338E-01
 -0.497  0.101E+00  0.337E-01  0.337E-01  0.337E-01
 -0.487  0.101E+00  0.336E-01  0.336E-01  0.336E-01
 -0.477  0.100E+00  0.334E-01  0.334E-01  0.334E-01
 -0.467  0.996E-01  0.332E-01  0.332E-01  0.332E-01
 -0.457  0.989E-01  0.330E-01  0.330E-01  0.330E-01
 -0.447  0.983E-01  0.328E-01  0.328E-01  0.328E-01
 -0.437  0.976E-01  0.325E-01  0.325E-01  0.325E-01
 -0.427  0.969E-01  0.323E-01  0.323E-01  0.323E-01
 -0.417  0.963E-01  0.321E-01  0.321E-01  0.321E-01
 -0.407  0.958E-01  0.319E-01  0.319E-01  0.319E-01
 -0.397  0.954E-01  0.318E-01  0.318E-01  0.318E-01
 -0.387  0.953E-01  0.318E-01  0.318E-01  0.318E-01
 -0.377  0.953E-01  0.318E-01  0.318E-01  0.318E-01
 -0.367  0.956E-01  0.319E-01  0.319E-01  0.319E-01
 -0.357  0.962E-01  0.321E-01  0.321E-01  0.321E-01
 -0.347  0.972E-01  0.324E-01  0.324E-01  0.324E-01
 -0.337  0.985E-01  0.328E-01  0.328E-01  0.328E-01
 -0.327  0.100E+00  0.334E-01  0.334E-01  0.334E-01
 -0.317  0.103E+00  0.342E-01  0.342E-01  0.342E-01
 -0.307  0.105E+00  0.351E-01  0.351E-01  0.351E-01
 -0.297  0.109E+00  0.362E-01  0.362E-01  0.362E-01
 -0.287  0.112E+00  0.374E-01  0.374E-01  0.374E-01
 -0.277  0.117E+00  0.389E-01  0.389E-01  0.389E-01
 -0.267  0.122E+00  0.406E-01  0.406E-01  0.406E-01
 -0.257  0.127E+00  0.425E-01  0.425E-01  0.425E-01
 -0.247  0.134E+00  0.445E-01  0.445E-01  0.445E-01
 -0.237  0.141E+00  0.468E-01  0.468E-01  0.468E-01
 -0.227  0.148E+00  0.494E-01  0.494E-01  0.494E-01
 -0.217  0.156E+00  0.521E-01  0.521E-01  0.521E-01
 -0.207  0.165E+00  0.550E-01  0.550E-01  0.550E-01
 -0.197  0.174E+00  0.581E-01  0.581E-01  0.581E-01
 -0.187  0.184E+00  0.615E-01  0.615E-01  0.615E-01
 -0.177  0.195E+00  0.650E-01  0.650E-01  0.650E-01
 -0.167  0.206E+00  0.686E-01  0.686E-01  0.686E-01
 -0.157  0.217E+00  0.725E-01  0.725E-01  0.725E-01
 -0.147  0.229E+00  0.764E-01  0.764E-01  0.764E-01
 -0.137  0.242E+00  0.805E-01  0.805E-01  0.805E-01
 -0.127  0.254E+00  0.847E-01  0.847E-01  0.847E-01
 -0.117  0.267E+00  0.890E-01  0.890E-01  0.890E-01
 -0.107  0.280E+00  0.933E-01  0.933E-01  0.933E-01
 -0.097  0.293E+00  0.976E-01  0.976E-01  0.976E-01
 -0.087  0.306E+00  0.102E+00  0.102E+00  0.102E+00
 -0.077  0.319E+00  0.106E+00  0.106E+00  0.106E+00
 -0.067  0.331E+00  0.110E+00  0.110E+00  0.110E+00
 -0.057  0.344E+00  0.115E+00  0.115E+00  0.115E+00
 -0.047  0.356E+00  0.119E+00  0.119E+00  0.119E+00
 -0.037  0.367E+00  0.122E+00  0.122E+00  0.122E+00
 -0.027  0.378E+00  0.126E+00  0.126E+00  0.126E+00
 -0.017  0.389E+00  0.130E+00  0.130E+00  0.130E+00
 -0.007  0.398E+00  0.133E+00  0.133E+00  0.133E+00
  0.003  0.407E+00  0.136E+00  0.136E+00  0.136E+00
  0.013  0.415E+00  0.138E+00  0.138E+00  0.138E+00
  0.023  0.422E+00  0.141E+00  0.141E+00  0.141E+00
  0.033  0.428E+00  0.143E+00  0.143E+00  0.143E+00
  0.043  0.433E+00  0.144E+00  0.144E+00  0.144E+00
  0.053  0.437E+00  0.146E+00  0.146E+00  0.146E+00
  0.063  0.440E+00  0.147E+00  0.147E+00  0.147E+00
  0.073  0.441E+00  0.147E+00  0.147E+00  0.147E+00
  0.083  0.442E+00  0.147E+00  0.147E+00  0.147E+00
  0.093  0.441E+00  0.147E+00  0.147E+00  0.147E+00
  0.103  0.439E+00  0.146E+00  0.146E+00  0.146E+00
  0.113  0.436E+00  0.145E+00  0.145E+00  0.145E+00
  0.123  0.432E+00  0.144E+00  0.144E+00  0.144E+00
  0.133  0.427E+00  0.142E+00  0.142E+00  0.142E+00
  0.143  0.420E+00  0.140E+00  0.140E+00  0.140E+00
  0.153  0.413E+00  0.138E+00  0.138E+00  0.138E+00
  0.163  0.405E+00  0.135E+00  0.135E+00  0.135E+00
  0.173  0.395E+00  0.132E+00  0.132E+00  0.132E+00
  0.183  0.385E+00  0.128E+00  0.128E+00  0.128E+00
  0.193  0.374E+00  0.125E+00  0.125E+00  0.125E+00
  0.203  0.363E+00  0.121E+00  0.121E+00  0.121E+00
  0.213  0.351E+00  0.117E+00  0.117E+00  0.117E+00
  0.223  0.338E+00  0.113E+00  0.113E+00  0.113E+00
  0.233  0.325E+00  0.108E+00  0.108E+00  0.108E+00
  0.243  0.312E+00  0.104E+00  0.104E+00  0.104E+00
  0.253  0.298E+00  0.994E-01  0.994E-01  0.994E-01
  0.263  0.285E+00  0.948E-01  0.948E-01  0.948E-01
  0.273  0.271E+00  0.902E-01  0.902E-01  0.902E-01
  0.283  0.257E+00  0.856E-01  0.856E-01  0.856E-01
  0.293  0.243E+00  0.810E-01  0.810E-01  0.810E-01
  0.303  0.229E+00  0.765E-01  0.765E-01  0.765E-01
  0.313  0.216E+00  0.720E-01  0.720E-01  0.720E-01
  0.323  0.203E+00  0.676E-01  0.676E-01  0.676E-01
  0.333  0.190E+00  0.633E-01  0.633E-01  0.633E-01
  0.343  0.177E+00  0.591E-01  0.591E-01  0.591E-01
  0.353  0.165E+00  0.551E-01  0.551E-01  0.551E-01
  0.363  0.154E+00  0.512E-01  0.512E-01  0.512E-01
  0.373  0.143E+00  0.475E-01  0.475E-01  0.475E-01
  0.383  0.132E+00  0.440E-01  0.440E-01  0.440E-01
  0.393  0.122E+00  0.406E-01  0.406E-01  0.406E-01
  0.403  0.112E+00  0.374E-01  0.374E-01  0.374E-01
  0.413  0.103E+00  0.345E-01  0.345E-01  0.345E-01
  0.423  0.951E-01  0.317E-01  0.317E-01  0.317E-01
  0.433  0.873E-01  0.291E-01  0.291E-01  0.291E-01
  0.443  0.801E-01  0.267E-01  0.267E-01  0.267E-01
  0.453  0.735E-01  0.245E-01  0.245E-01  0.245E-01
  0.463  0.675E-01  0.225E-01  0.225E-01  0.225E-01
  0.473  0.621E-01  0.207E-01  0.207E-01  0.207E-01
  0.483  0.573E-01  0.191E-01  0.191E-01  0.191E-01
  0.493  0.530E-01  0.177E-01  0.177E-01  0.177E-01
  0.503  0.493E-01  0.164E-01  0.164E-01  0.164E-01
  0.513  0.461E-01  0.154E-01  0.154E-01  0.154E-01
  0.523  0.434E-01  0.145E-01  0.145E-01  0.145E-01
  0.533  0.413E-01  0.138E-01  0.138E-01  0.138E-01
  0.543  0.397E-01  0.132E-01  0.132E-01  0.132E-01
  0.553  0.386E-01  0.129E-01  0.129E-01  0.129E-01
  0.563  0.379E-01  0.126E-01  0.126E-01  0.126E-01
  0.573  0.378E-01  0.126E-01  0.126E-01  0.126E-01
  0.583  0.381E-01  0.127E-01  0.127E-01  0.127E-01
  0.593  0.388E-01  0.129E-01  0.129E-01  0.129E-01
  0.603  0.400E-01  0.133E-01  0.133E-01  0.133E-01
  0.613  0.417E-01  0.139E-01  0.139E-01  0.139E-01
  0.623  0.437E-01  0.146E-01  0.146E-01  0.146E-01
  0.633  0.462E-01  0.154E-01  0.154E-01  0.154E-01
  0.643  0.491E-01  0.164E-01  0.164E-01  0.164E-01
  0.653  0.524E-01  0.175E-01  0.175E-01  0.175E-01
  0.663  0.560E-01  0.187E-01  0.187E-01  0.187E-01
  0.673  0.601E-01  0.200E-01  0.200E-01  0.200E-01
  0.683  0.645E-01  0.215E-01  0.215E-01  0.215E-01
  0.693  0.692E-01  0.231E-01  0.231E-01  0.231E-01
  0.703  0.743E-01  0.248E-01  0.248E-01  0.248E-01
  0.713  0.796E-01  0.265E-01  0.265E-01  0.265E-01
  0.723  0.853E-01  0.284E-01  0.284E-01  0.284E-01
  0.733  0.912E-01  0.304E-01  0.304E-01  0.304E-01
  0.743  0.974E-01  0.325E-01  0.325E-01  0.325E-01
  0.753  0.104E+00  0.346E-01  0.346E-01  0.346E-01
  0.763  0.110E+00  0.368E-01  0.368E-01  0.368E-01
  0.773  0.117E+00  0.390E-01  0.390E-01  0.390E-01
  0.783  0.124E+00  0.413E-01  0.413E-01  0.413E-01
  0.793  0.131E+00  0.436E-01  0.436E-01  0.436E-01
  0.803  0.138E+00  0.460E-01  0.460E-01  0.460E-01
  0.813  0.145E+00  0.483E-01  0.483E-01  0.483E-01
  0.823  0.152E+00  0.506E-01  0.506E-01  0.506E-01
  0.833  0.159E+00  0.529E-01  0.529E-01  0.529E-01
  0.843  0.166E+00  0.552E-01  0.552E-01  0.552E-01
  0.853  0.172E+00  0.574E-01  0.574E-01  0.574E-01
  0.863  0.179E+00  0.595E-01  0.595E-01  0.595E-01
  0.873  0.185E+00  0.615E-01  0.615E-01  0.615E-01
  0.883  0.190E+00  0.635E-01  0.635E-01  0.635E-01
  0.893  0.196E+00  0.653E-01  0.653E-01  0.653E-01
  0.903  0.201E+00  0.670E-01  0.670E-01  0.670E-01
  0.913  0.206E+00  0.686E-01  0.686E-01  0.686E-01
  0.923  0.210E+00  0.700E-01  0.700E-01  0.700E-01
  0.933  0.214E+00  0.712E-01  0.712E-01  0.712E-01
  0.943  0.217E+00  0.723E-01  0.723E-01  0.723E-01
  0.953  0.220E+00  0.732E-01  0.732E-01  0.732E-01
  0.963  0.222E+00  0.739E-01  0.739E-01  0.739E-01
  0.973  0.223E+00  0.744E-01  0.744E-01  0.744E-01
  0.983  0.224E+00  0.747E-01  0.747E-01  0.747E-01
  0.993  0.225E+00  0.748E-01  0.748E-01  0.748E-01
  1.003  0.224E+00  0.748E-01  0.748E-01  0.748E-01
  1.013  0.223E+00  0.745E-01  0.745E-01  0.745E-01
  1.023  0.222E+00  0.740E-01  0.740E-01  0.740E-01
  1.033  0.220E+00  0.733E-01  0.733E-01  0.733E-01
  1.043  0.217E+00  0.724E-01  0.724E-01  0.724E-01
  1.053  0.214E+00  0.713E-01  0.713E-01  0.713E-01
  1.063  0.210E+00  0.701E-01  0.701E-01  0.701E-01
  1.073  0.206E+00  0.687E-01  0.687E-01  0.687E-01
  1.083  0.202E+00  0.672E-01  0.672E-01  0.672E-01
  1.093  0.196E+00  0.655E-01  0.655E-01  0.655E-01
  1.103  0.191E+00  0.637E-01  0.637E-01  0.637E-01
  1.113  0.185E+00  0.617E-01  0.617E-01  0.617E-01
  1.123  0.179E+00  0.597E-01  0.597E-01  0.597E-01
  1.133  0.173E+00  0.575E-01  0.575E-01  0.575E-01
  1.143  0.166E+00  0.553E-01  0.553E-01  0.553E-01
  1.153  0.159E+00  0.531E-01  0.531E-01  0.531E-01
  1.163  0.152E+00  0.508E-01  0.508E-01  0.508E-01
  1.173  0.145E+00  0.484E-01  0.484E-01  0.484E-01
  1.183  0.138E+00  0.461E-01  0.461E-01  0.461E-01
  1.193  0.131E+00  0.437E-01  0.437E-01  0.437E-01
  1.203  0.124E+00  0.414E-01  0.414E-01  0.414E-01
  1.213  0.117E+00  0.390E-01  0.390E-01  0.390E-01
  1.223  0.110E+00  0.367E-01  0.367E-01  0.367E-01
  1.233  0.103E+00  0.345E-01  0.345E-01  0.345E-01
  1.243  0.969E-01  0.323E-01  0.323E-01  0.323E-01
  1.253  0.904E-01  0.301E-01  0.301E-01  0.301E-01
  1.263  0.842E-01  0.281E-01  0.281E-01  0.281E-01
  1.273  0.782E-01  0.261E-01  0.261E-01  0.261E-01
  1.283  0.724E-01  0.241E-01  0.241E-01  0.241E-01
  1.293  0.669E-01  0.223E-01  0.223E-01  0.223E-01
  1.303  0.616E-01  0.205E-01  0.205E-01  0.205E-01
  1.313  0.566E-01  0.189E-01  0.189E-01  0.189E-01
  1.323  0.518E-01  0.173E-01  0.173E-01  0.173E-01
  1.333  0.473E-01  0.158E-01  0.158E-01  0.158E-01
  1.343  0.431E-01  0.144E-01  0.144E-01  0.144E-01
  1.353  0.392E-01  0.131E-01  0.131E-01  0.131E-01
  1.363  0.355E-01  0.118E-01  0.118E-01  0.118E-01
  1.373  0.321E-01  0.107E-01  0.107E-01  0.107E-01
  1.383  0.289E-01  0.965E-02  0.965E-02  0.965E-02
  1.393  0.260E-01  0.867E-02  0.867E-02  0.867E-02
  1.403  0.233E-01  0.777E-02  0.777E-02  0.777E-02
  1.413  0.209E-01  0.695E-02  0.695E-02  0.695E-02
  1.423  0.186E-01  0.620E-02  0.620E-02  0.620E-02
  1.433  0.165E-01  0.551E-02  0.551E-02  0.551E-02
  1.443  0.147E-01  0.489E-02  0.489E-02  0.489E-02
  1.453  0.130E-01  0.432E-02  0.432E-02  0.432E-02
  1.463  0.114E-01  0.381E-02  0.381E-02  0.381E-02
  1.473  0.101E-01  0.335E-02  0.335E-02  0.335E-02
  1.483  0.883E-02  0.294E-02  0.294E-02  0.294E-02
  1.493  0.773E-02  0.258E-02  0.258E-02  0.258E-02
  1.503  0.674E-02  0.225E-02  0.225E-02  0.225E-02
  1.513  0.587E-02  0.196E-02  0.196E-02  0.196E-02
  1.523  0.509E-02  0.170E-02  0.170E-02  0.170E-02
  1.533  0.441E-02  0.147E-02  0.147E-02  0.147E-02
  1.543  0.381E-02  0.127E-02  0.127E-02  0.127E-02
  1.553  0.328E-02  0.109E-02  0.109E-02  0.109E-02
  1.563  0.281E-02  0.938E-03  0.938E-03  0.938E-03
  1.573  0.241E-02  0.803E-03  0.803E-03  0.803E-03
  1.583  0.206E-02  0.686E-03  0.686E-03  0.686E-03
  1.593  0.175E-02  0.585E-03  0.585E-03  0.585E-03
  1.603  0.149E-02  0.497E-03  0.497E-03  0.497E-03
  1.613  0.126E-02  0.421E-03  0.421E-03  0.421E-03
  1.623  0.107E-02  0.357E-03  0.357E-03  0.357E-03
  1.633  0.903E-03  0.301E-03  0.301E-03  0.301E-03
  1.643  0.762E-03  0.254E-03  0.254E-03  0.254E-03
  1.653  0.642E-03  0.214E-03  0.214E-03  0.214E-03
  1.663  0.541E-03  0.180E-03  0.180E-03  0.180E-03
  1.673  0.457E-03  0.152E-03  0.152E-03  0.152E-03
  1.683  0.388E-03  0.129E-03  0.129E-03  0.129E-03
  1.693  0.331E-03  0.110E-03  0.110E-03  0.110E-03
  1.703  0.286E-03  0.953E-04  0.953E-04  0.953E-04
  1.713  0.251E-03  0.836E-04  0.836E-04  0.836E-04
  1.723  0.225E-03  0.751E-04  0.751E-04  0.751E-04
  1.733  0.209E-03  0.695E-04  0.695E-04  0.695E-04
  1.743  0.200E-03  0.668E-04  0.668E-04  0.668E-04
  1.753  0.200E-03  0.668E-04  0.668E-04  0.668E-04
  1.763  0.209E-03  0.696E-04  0.696E-04  0.696E-04
  1.773  0.226E-03  0.753E-04  0.753E-04  0.753E-04
  1.783  0.253E-03  0.842E-04  0.842E-04  0.842E-04
  1.793  0.290E-03  0.966E-04  0.966E-04  0.966E-04
  1.803  0.339E-03  0.113E-03  0.113E-03  0.113E-03
  1.813  0.401E-03  0.134E-03  0.134E-03  0.134E-03
  1.823  0.479E-03  0.160E-03  0.160E-03  0.160E-03
  1.833  0.574E-03  0.191E-03  0.191E-03  0.191E-03
  1.843  0.690E-03  0.230E-03  0.230E-03  0.230E-03
  1.853  0.830E-03  0.277E-03  0.277E-03  0.277E-03
  1.863  0.998E-03  0.333E-03  0.333E-03  0.333E-03
  1.873  0.120E-02  0.399E-03  0.399E-03  0.399E-03
  1.883  0.144E-02  0.479E-03  0.479E-03  0.479E-03
  1.893  0.172E-02  0.573E-03  0.573E-03  0.573E-03
  1.903  0.205E-02  0.684E-03  0.684E-03  0.684E-03
  1.913  0.245E-02  0.815E-03  0.815E-03  0.815E-03
  1.923  0.291E-02  0.969E-03  0.969E-03  0.969E-03
  1.933  0.345E-02  0.115E-02  0.115E-02  0.115E-02
  1.943  0.407E-02  0.136E-02  0.136E-02  0.136E-02
  1.953  0.480E-02  0.160E-02  0.160E-02  0.160E-02
  1.963  0.565E-02  0.188E-02  0.188E-02  0.188E-02
  1.973  0.663E-02  0.221E-02  0.221E-02  0.221E-02
  1.983  0.776E-02  0.259E-02  0.259E-02  0.259E-02
  1.993  0.906E-02  0.302E-02  0.302E-02  0.302E-02
  2.003  0.105E-01  0.352E-02  0.352E-02  0.352E-02
  2.013  0.122E-01  0.408E-02  0.408E-02  0.408E-02
  2.023  0.142E-01  0.473E-02  0.473E-02  0.473E-02
  2.033  0.164E-01  0.546E-02  0.546E-02  0.546E-02
  2.043  0.189E-01  0.629E-02  0.629E-02  0.629E-02
  2.053  0.217E-01  0.723E-02  0.723E-02  0.723E-02
  2.063  0.249E-01  0.829E-02  0.829E-02  0.829E-02
  2.073  0.284E-01  0.948E-02  0.948E-02  0.948E-02
  2.083  0.324E-01  0.108E-01  0.108E-01  0.108E-01
  2.093  0.369E-01  0.123E-01  0.123E-01  0.123E-01
  2.103  0.419E-01  0.140E-01  0.140E-01  0.140E-01
  2.113  0.474E-01  0.158E-01  0.158E-01  0.158E-01
  2.123  0.535E-01  0.178E-01  0.178E-01  0.178E-01
  2.133  0.602E-01  0.201E-01  0.201E-01  0.201E-01
  2.143  0.676E-01  0.225E-01  0.225E-01  0.225E-01
  2.153  0.757E-01  0.252E-01  0.252E-01  0.252E-01
  2.163  0.846E-01  0.282E-01  0.282E-01  0.282E-01
  2.173  0.943E-01  0.314E-01  0.314E-01  0.314E-01
  2.183  0.105E+00  0.350E-01  0.350E-01  0.350E-01
  2.193  0.116E+00  0.388E-01  0.388E-01  0.388E-01
  2.203  0.129E+00  0.429E-01  0.429E-01  0.429E-01
  2.213  0.142E+00  0.473E-01  0.473E-01  0.473E-01
  2.223  0.156E+00  0.521E-01  0.521E-01  0.521E-01
  2.233  0.172E+00  0.572E-01  0.572E-01  0.572E-01
  2.243  0.188E+00  0.626E-01  0.626E-01  0.626E-01
  2.253  0.205E+00  0.684E-01  0.684E-01  0.684E-01
  2.263  0.224E+00  0.746E-01  0.746E-01  0.746E-01
  2.273  0.243E+00  0.811E-01  0.811E-01  0.811E-01
  2.283  0.264E+00  0.879E-01  0.879E-01  0.879E-01
  2.293  0.285E+00  0.951E-01  0.951E-01  0.951E-01
  2.303  0.308E+00  0.103E+00  0.103E+00  0.103E+00
  2.313  0.332E+00  0.111E+00  0.111E+00  0.111E+00
  2.323  0.356E+00  0.119E+00  0.119E+00  0.119E+00
  2.333  0.382E+00  0.127E+00  0.127E+00  0.127E+00
  2.343  0.408E+00  0.136E+00  0.136E+00  0.136E+00
  2.353  0.436E+00  0.145E+00  0.145E+00  0.145E+00
  2.363  0.464E+00  0.155E+00  0.155E+00  0.155E+00
  2.373  0.492E+00  0.164E+00  0.164E+00  0.164E+00
  2.383  0.522E+00  0.174E+00  0.174E+00  0.174E+00
  2.393  0.552E+00  0.184E+00  0.184E+00  0.184E+00
  2.403  0.582E+00  0.194E+00  0.194E+00  0.194E+00
  2.413  0.612E+00  0.204E+00  0.204E+00  0.204E+00
  2.423  0.643E+00  0.214E+00  0.214E+00  0.214E+00
  2.433  0.674E+00  0.225E+00  0.225E+00  0.225E+00
  2.443  0.705E+00  0.235E+00  0.235E+00  0.235E+00
  2.453  0.736E+00  0.245E+00  0.245E+00  0.245E+00
  2.463  0.766E+00  0.255E+00  0.255E+00  0.255E+00
  2.473  0.796E+00  0.265E+00  0.265E+00  0.265E+00
  2.483  0.826E+00  0.275E+00  0.275E+00  0.275E+00
  2.493  0.855E+00  0.285E+00  0.285E+00  0.285E+00
  2.503  0.884E+00  0.295E+00  0.295E+00  0.295E+00
  2.513  0.912E+00  0.304E+00  0.304E+00  0.304E+00
  2.523  0.939E+00  0.313E+00  0.313E+00  0.313E+00
  2.533  0.965E+00  0.322E+00  0.322E+00  0.322E+00
  2.543  0.990E+00  0.330E+00  0.330E+00  0.330E+00
  2.553  0.101E+01  0.338E+00  0.338E+00  0.338E+00
  2.563  0.104E+01  0.346E+00  0.346E+00  0.346E+00
  2.573  0.106E+01  0.353E+00  0.353E+00  0.353E+00
  2.583  0.108E+01  0.360E+00  0.360E+00  0.360E+00
  2.593  0.110E+01  0.367E+00  0.367E+00  0.367E+00
  2.603  0.112E+01  0.373E+00  0.373E+00  0.373E+00
  2.613  0.114E+01  0.378E+00  0.378E+00  0.378E+00
  2.623  0.115E+01  0.384E+00  0.384E+00  0.384E+00
  2.633  0.117E+01  0.389E+00  0.389E+00  0.389E+00
  2.643  0.118E+01  0.393E+00  0.393E+00  0.393E+00
  2.653  0.119E+01  0.397E+00  0.397E+00  0.397E+00
  2.663  0.120E+01  0.401E+00  0.401E+00  0.401E+00
  2.673  0.121E+01  0.404E+00  0.404E+00  0.404E+00
  2.683  0.122E+01  0.406E+00  0.406E+00  0.406E+00
  2.693  0.123E+01  0.409E+00  0.409E+00  0.409E+00
  2.703  0.123E+01  0.411E+00  0.411E+00  0.411E+00
  2.713  0.124E+01  0.412E+00  0.412E+00  0.412E+00
  2.723  0.124E+01  0.413E+00  0.413E+00  0.413E+00
  2.733  0.124E+01  0.414E+00  0.414E+00  0.414E+00
  2.743  0.124E+01  0.414E+00  0.414E+00  0.414E+00
  2.753  0.124E+01  0.414E+00  0.414E+00  0.414E+00
  2.763  0.124E+01  0.413E+00  0.413E+00  0.413E+00
  2.773  0.124E+01  0.412E+00  0.412E+00  0.412E+00
  2.783  0.123E+01  0.411E+00  0.411E+00  0.411E+00
  2.793  0.123E+01  0.409E+00  0.409E+00  0.409E+00
  2.803  0.122E+01  0.407E+00  0.407E+00  0.407E+00
  2.813  0.121E+01  0.404E+00  0.404E+00  0.404E+00
  2.823  0.120E+01  0.401E+00  0.401E+00  0.401E+00
  2.833  0.119E+01  0.398E+00  0.398E+00  0.398E+00
  2.843  0.118E+01  0.394E+00  0.394E+00  0.394E+00
  2.853  0.117E+01  0.390E+00  0.390E+00  0.390E+00
  2.863  0.115E+01  0.385E+00  0.385E+00  0.385E+00
  2.873  0.114E+01  0.380E+00  0.380E+00  0.380E+00
  2.883  0.112E+01  0.374E+00  0.374E+00  0.374E+00
  2.893  0.110E+01  0.368E+00  0.368E+00  0.368E+00
  2.903  0.108E+01  0.362E+00  0.362E+00  0.362E+00
  2.913  0.106E+01  0.355E+00  0.355E+00  0.355E+00
  2.923  0.104E+01  0.348E+00  0.348E+00  0.348E+00
  2.933  0.102E+01  0.340E+00  0.340E+00  0.340E+00
  2.943  0.996E+00  0.332E+00  0.332E+00  0.332E+00
  2.953  0.971E+00  0.324E+00  0.324E+00  0.324E+00
  2.963  0.945E+00  0.315E+00  0.315E+00  0.315E+00
  2.973  0.918E+00  0.306E+00  0.306E+00  0.306E+00
  2.983  0.890E+00  0.297E+00  0.297E+00  0.297E+00
  2.993  0.862E+00  0.287E+00  0.287E+00  0.287E+00
  3.003  0.833E+00  0.278E+00  0.278E+00  0.278E+00
  3.013  0.803E+00  0.268E+00  0.268E+00  0.268E+00
  3.023  0.774E+00  0.258E+00  0.258E+00  0.258E+00
  3.033  0.743E+00  0.248E+00  0.248E+00  0.248E+00
  3.043  0.713E+00  0.238E+00  0.238E+00  0.238E+00
  3.053  0.683E+00  0.228E+00  0.228E+00  0.228E+00
  3.063  0.652E+00  0.217E+00  0.217E+00  0.217E+00
  3.073  0.622E+00  0.207E+00  0.207E+00  0.207E+00
  3.083  0.592E+00  0.197E+00  0.197E+00  0.197E+00
  3.093  0.562E+00  0.187E+00  0.187E+00  0.187E+00
  3.103  0.533E+00  0.178E+00  0.178E+00  0.178E+00
  3.113  0.505E+00  0.168E+00  0.168E+00  0.168E+00
  3.123  0.477E+00  0.159E+00  0.159E+00  0.159E+00
  3.133  0.451E+00  0.150E+00  0.150E+00  0.150E+00
  3.143  0.425E+00  0.142E+00  0.142E+00  0.142E+00
  3.153  0.400E+00  0.133E+00  0.133E+00  0.133E+00
  3.163  0.376E+00  0.125E+00  0.125E+00  0.125E+00
  3.173  0.353E+00  0.118E+00  0.118E+00  0.118E+00
  3.183  0.331E+00  0.110E+00  0.110E+00  0.110E+00
  3.193  0.311E+00  0.104E+00  0.104E+00  0.104E+00
  3.203  0.292E+00  0.972E-01  0.972E-01  0.972E-01
  3.213  0.274E+00  0.912E-01  0.912E-01  0.912E-01
  3.223  0.257E+00  0.857E-01  0.857E-01  0.857E-01
  3.233  0.242E+00  0.805E-01  0.805E-01  0.805E-01
  3.243  0.228E+00  0.759E-01  0.759E-01  0.759E-01
  3.253  0.215E+00  0.716E-01  0.716E-01  0.716E-01
  3.263  0.203E+00  0.678E-01  0.678E-01  0.678E-01
  3.273  0.193E+00  0.644E-01  0.644E-01  0.644E-01
  3.283  0.184E+00  0.614E-01  0.614E-01  0.614E-01
  3.293  0.176E+00  0.588E-01  0.588E-01  0.588E-01
  3.303  0.170E+00  0.566E-01  0.566E-01  0.566E-01
  3.313  0.164E+00  0.548E-01  0.548E-01  0.548E-01
  3.323  0.160E+00  0.533E-01  0.533E-01  0.533E-01
  3.333  0.156E+00  0.521E-01  0.521E-01  0.521E-01
  3.343  0.154E+00  0.513E-01  0.513E-01  0.513E-01
  3.353  0.152E+00  0.507E-01  0.507E-01  0.507E-01
  3.363  0.151E+00  0.504E-01  0.504E-01  0.504E-01
  3.373  0.151E+00  0.504E-01  0.504E-01  0.504E-01
  3.383  0.152E+00  0.505E-01  0.505E-01  0.505E-01
  3.393  0.153E+00  0.509E-01  0.509E-01  0.509E-01
  3.403  0.154E+00  0.515E-01  0.515E-01  0.515E-01
  3.413  0.156E+00  0.522E-01  0.522E-01  0.522E-01
  3.423  0.159E+00  0.530E-01  0.530E-01  0.530E-01
  3.433  0.162E+00  0.539E-01  0.539E-01  0.539E-01
  3.443  0.165E+00  0.549E-01  0.549E-01  0.549E-01
  3.453  0.168E+00  0.559E-01  0.559E-01  0.559E-01
  3.463  0.171E+00  0.570E-01  0.570E-01  0.570E-01
  3.473  0.174E+00  0.581E-01  0.581E-01  0.581E-01
  3.483  0.178E+00  0.592E-01  0.592E-01  0.592E-01
  3.493  0.181E+00  0.602E-01  0.602E-01  0.602E-01
  3.503  0.184E+00  0.612E-01  0.612E-01  0.612E-01
  3.513  0.187E+00  0.622E-01  0.622E-01  0.622E-01
  3.523  0.189E+00  0.630E-01  0.630E-01  0.630E-01
  3.533  0.191E+00  0.638E-01  0.638E-01  0.638E-01
  3.543  0.193E+00  0.644E-01  0.644E-01  0.644E-01
  3.553  0.195E+00  0.650E-01  0.650E-01  0.650E-01
  3.563  0.196E+00  0.654E-01  0.654E-01  0.654E-01
  3.573  0.197E+00  0.657E-01  0.657E-01  0.657E-01
  3.583  0.198E+00  0.658E-01  0.658E-01  0.658E-01
  3.593  0.198E+00  0.659E-01  0.659E-01  0.659E-01
  3.603  0.197E+00  0.658E-01  0.658E-01  0.658E-01
  3.613  0.197E+00  0.655E-01  0.655E-01  0.655E-01
  3.623  0.195E+00  0.652E-01  0.652E-01  0.652E-01
  3.633  0.194E+00  0.647E-01  0.647E-01  0.647E-01
  3.643  0.192E+00  0.641E-01  0.641E-01  0.641E-01
  3.653  0.190E+00  0.634E-01  0.634E-01  0.634E-01
  3.663  0.188E+00  0.626E-01  0.626E-01  0.626E-01
  3.673  0.185E+00  0.617E-01  0.617E-01  0.617E-01
  3.683  0.182E+00  0.608E-01  0.608E-01  0.608E-01
  3.693  0.180E+00  0.599E-01  0.599E-01  0.599E-01
  3.703  0.177E+00  0.589E-01  0.589E-01  0.589E-01
  3.713  0.174E+00  0.579E-01  0.579E-01  0.579E-01
  3.723  0.171E+00  0.570E-01  0.570E-01  0.570E-01
  3.733  0.168E+00  0.560E-01  0.560E-01  0.560E-01
  3.743  0.166E+00  0.552E-01  0.552E-01  0.552E-01
  3.753  0.163E+00  0.545E-01  0.545E-01  0.545E-01
  3.763  0.161E+00  0.538E-01  0.538E-01  0.538E-01
  3.773  0.160E+00  0.533E-01  0.533E-01  0.533E-01
  3.783  0.159E+00  0.530E-01  0.530E-01  0.530E-01
  3.793  0.159E+00  0.529E-01  0.529E-01  0.529E-01
  3.803  0.159E+00  0.529E-01  0.529E-01  0.529E-01
  3.813  0.160E+00  0.533E-01  0.533E-01  0.533E-01
  3.823  0.161E+00  0.538E-01  0.538E-01  0.538E-01
  3.833  0.164E+00  0.547E-01  0.547E-01  0.547E-01
  3.843  0.168E+00  0.558E-01  0.558E-01  0.558E-01
  3.853  0.172E+00  0.573E-01  0.573E-01  0.573E-01
  3.863  0.177E+00  0.591E-01  0.591E-01  0.591E-01
  3.873  0.184E+00  0.613E-01  0.613E-01  0.613E-01
  3.883  0.192E+00  0.639E-01  0.639E-01  0.639E-01
  3.893  0.200E+00  0.668E-01  0.668E-01  0.668E-01
  3.903  0.210E+00  0.701E-01  0.701E-01  0.701E-01
  3.913  0.221E+00  0.738E-01  0.738E-01  0.738E-01
  3.923  0.234E+00  0.779E-01  0.779E-01  0.779E-01
  3.933  0.247E+00  0.825E-01  0.825E-01  0.825E-01
  3.943  0.262E+00  0.874E-01  0.874E-01  0.874E-01
  3.953  0.278E+00  0.927E-01  0.927E-01  0.927E-01
  3.963  0.295E+00  0.984E-01  0.984E-01  0.984E-01
  3.973  0.313E+00  0.104E+00  0.104E+00  0.104E+00
  3.983  0.332E+00  0.111E+00  0.111E+00  0.111E+00
  3.993  0.353E+00  0.118E+00  0.118E+00  0.118E+00
  4.003  0.374E+00  0.125E+00  0.125E+00  0.125E+00
  4.013  0.396E+00  0.132E+00  0.132E+00  0.132E+00
  4.023  0.419E+00  0.140E+00  0.140E+00  0.140E+00
  4.033  0.442E+00  0.147E+00  0.147E+00  0.147E+00
  4.043  0.466E+00  0.155E+00  0.155E+00  0.155E+00
  4.053  0.490E+00  0.163E+00  0.163E+00  0.163E+00
  4.063  0.515E+00  0.172E+00  0.172E+00  0.172E+00
  4.073  0.540E+00  0.180E+00  0.180E+00  0.180E+00
  4.083  0.565E+00  0.188E+00  0.188E+00  0.188E+00
  4.093  0.590E+00  0.197E+00  0.197E+00  0.197E+00
  4.103  0.615E+00  0.205E+00  0.205E+00  0.205E+00
  4.113  0.639E+00  0.213E+00  0.213E+00  0.213E+00
  4.123  0.663E+00  0.221E+00  0.221E+00  0.221E+00
  4.133  0.686E+00  0.229E+00  0.229E+00  0.229E+00
  4.143  0.709E+00  0.236E+00  0.236E+00  0.236E+00
  4.153  0.731E+00  0.244E+00  0.244E+00  0.244E+00
  4.163  0.751E+00  0.250E+00  0.250E+00  0.250E+00
  4.173  0.771E+00  0.257E+00  0.257E+00  0.257E+00
  4.183  0.789E+00  0.263E+00  0.263E+00  0.263E+00
  4.193  0.806E+00  0.269E+00  0.269E+00  0.269E+00
  4.203  0.822E+00  0.274E+00  0.274E+00  0.274E+00
  4.213  0.836E+00  0.279E+00  0.279E+00  0.279E+00
  4.223  0.849E+00  0.283E+00  0.283E+00  0.283E+00
  4.233  0.860E+00  0.287E+00  0.287E+00  0.287E+00
  4.243  0.870E+00  0.290E+00  0.290E+00  0.290E+00
  4.253  0.878E+00  0.293E+00  0.293E+00  0.293E+00
  4.263  0.884E+00  0.295E+00  0.295E+00  0.295E+00
  4.273  0.889E+00  0.296E+00  0.296E+00  0.296E+00
  4.283  0.892E+00  0.297E+00  0.297E+00  0.297E+00
  4.293  0.894E+00  0.298E+00  0.298E+00  0.298E+00
  4.303  0.894E+00  0.298E+00  0.298E+00  0.298E+00
  4.313  0.892E+00  0.297E+00  0.297E+00  0.297E+00
  4.323  0.890E+00  0.297E+00  0.297E+00  0.297E+00
  4.333  0.885E+00  0.295E+00  0.295E+00  0.295E+00
  4.343  0.880E+00  0.293E+00  0.293E+00  0.293E+00
  4.353  0.874E+00  0.291E+00  0.291E+00  0.291E+00
  4.363  0.866E+00  0.289E+00  0.289E+00  0.289E+00
  4.373  0.857E+00  0.286E+00  0.286E+00  0.286E+00
  4.383  0.847E+00  0.282E+00  0.282E+00  0.282E+00
  4.393  0.837E+00  0.279E+00  0.279E+00  0.279E+00
  4.403  0.826E+00  0.275E+00  0.275E+00  0.275E+00
  4.413  0.814E+00  0.271E+00  0.271E+00  0.271E+00
  4.423  0.801E+00  0.267E+00  0.267E+00  0.267E+00
  4.433  0.788E+00  0.263E+00  0.263E+00  0.263E+00
  4.443  0.774E+00  0.258E+00  0.258E+00  0.258E+00
  4.453  0.760E+00  0.253E+00  0.253E+00  0.253E+00
  4.463  0.745E+00  0.248E+00  0.248E+00  0.248E+00
  4.473  0.730E+00  0.243E+00  0.243E+00  0.243E+00
  4.483  0.715E+00  0.238E+00  0.238E+00  0.238E+00
  4.493  0.699E+00  0.233E+00  0.233E+00  0.233E+00
  4.503  0.684E+00  0.228E+00  0.228E+00  0.228E+00
  4.513  0.668E+00  0.223E+00  0.223E+00  0.223E+00
  4.523  0.652E+00  0.217E+00  0.217E+00  0.217E+00
  4.533  0.636E+00  0.212E+00  0.212E+00  0.212E+00
  4.543  0.619E+00  0.206E+00  0.206E+00  0.206E+00
  4.553  0.603E+00  0.201E+00  0.201E+00  0.201E+00
  4.563  0.587E+00  0.196E+00  0.196E+00  0.196E+00
  4.573  0.570E+00  0.190E+00  0.190E+00  0.190E+00
  4.583  0.554E+00  0.185E+00  0.185E+00  0.185E+00
  4.593  0.538E+00  0.179E+00  0.179E+00  0.179E+00
  4.603  0.521E+00  0.174E+00  0.174E+00  0.174E+00
  4.613  0.505E+00  0.168E+00  0.168E+00  0.168E+00
  4.623  0.489E+00  0.163E+00  0.163E+00  0.163E+00
  4.633  0.473E+00  0.158E+00  0.158E+00  0.158E+00
  4.643  0.458E+00  0.153E+00  0.153E+00  0.153E+00
  4.653  0.442E+00  0.147E+00  0.147E+00  0.147E+00
  4.663  0.427E+00  0.142E+00  0.142E+00  0.142E+00
  4.673  0.413E+00  0.138E+00  0.138E+00  0.138E+00
  4.683  0.398E+00  0.133E+00  0.133E+00  0.133E+00
  4.693  0.384E+00  0.128E+00  0.128E+00  0.128E+00
  4.703  0.371E+00  0.124E+00  0.124E+00  0.124E+00
  4.713  0.358E+00  0.119E+00  0.119E+00  0.119E+00
  4.723  0.346E+00  0.115E+00  0.115E+00  0.115E+00
  4.733  0.335E+00  0.112E+00  0.112E+00  0.112E+00
  4.743  0.324E+00  0.108E+00  0.108E+00  0.108E+00
  4.753  0.315E+00  0.105E+00  0.105E+00  0.105E+00
  4.763  0.306E+00  0.102E+00  0.102E+00  0.102E+00
  4.773  0.298E+00  0.993E-01  0.993E-01  0.993E-01
  4.783  0.291E+00  0.970E-01  0.970E-01  0.970E-01
  4.793  0.285E+00  0.951E-01  0.951E-01  0.951E-01
  4.803  0.280E+00  0.935E-01  0.935E-01  0.935E-01
  4.813  0.277E+00  0.923E-01  0.923E-01  0.923E-01
  4.823  0.274E+00  0.914E-01  0.914E-01  0.914E-01
  4.833  0.273E+00  0.910E-01  0.910E-01  0.910E-01
  4.843  0.273E+00  0.910E-01  0.910E-01  0.910E-01
  4.853  0.274E+00  0.914E-01  0.914E-01  0.914E-01
  4.863  0.276E+00  0.922E-01  0.922E-01  0.922E-01
  4.873  0.280E+00  0.933E-01  0.933E-01  0.933E-01
  4.883  0.285E+00  0.949E-01  0.949E-01  0.949E-01
  4.893  0.291E+00  0.969E-01  0.969E-01  0.969E-01
  4.903  0.298E+00  0.992E-01  0.992E-01  0.992E-01
  4.913  0.306E+00  0.102E+00  0.102E+00  0.102E+00
  4.923  0.315E+00  0.105E+00  0.105E+00  0.105E+00
  4.933  0.325E+00  0.108E+00  0.108E+00  0.108E+00
  4.943  0.336E+00  0.112E+00  0.112E+00  0.112E+00
  4.953  0.348E+00  0.116E+00  0.116E+00  0.116E+00
  4.963  0.360E+00  0.120E+00  0.120E+00  0.120E+00
  4.973  0.373E+00  0.124E+00  0.124E+00  0.124E+00
  4.983  0.387E+00  0.129E+00  0.129E+00  0.129E+00
  4.993  0.401E+00  0.134E+00  0.134E+00  0.134E+00
  5.003  0.416E+00  0.139E+00  0.139E+00  0.139E+00
  5.013  0.431E+00  0.144E+00  0.144E+00  0.144E+00
  5.023  0.446E+00  0.149E+00  0.149E+00  0.149E+00
  5.033  0.460E+00  0.153E+00  0.153E+00  0.153E+00
  5.043  0.475E+00  0.158E+00  0.158E+00  0.158E+00
  5.053  0.490E+00  0.163E+00  0.163E+00  0.163E+00
  5.063  0.504E+00  0.168E+00  0.168E+00  0.168E+00
  5.073  0.518E+00  0.173E+00  0.173E+00  0.173E+00
  5.083  0.531E+00  0.177E+00  0.177E+00  0.177E+00
  5.093  0.543E+00  0.181E+00  0.181E+00  0.181E+00
  5.103  0.555E+00  0.185E+00  0.185E+00  0.185E+00
  5.113  0.566E+00  0.189E+00  0.189E+00  0.189E+00
  5.123  0.576E+00  0.192E+00  0.192E+00  0.192E+00
  5.133  0.585E+00  0.195E+00  0.195E+00  0.195E+00
  5.143  0.593E+00  0.198E+00  0.198E+00  0.198E+00
  5.153  0.600E+00  0.200E+00  0.200E+00  0.200E+00
  5.163  0.606E+00  0.202E+00  0.202E+00  0.202E+00
  5.173  0.611E+00  0.204E+00  0.204E+00  0.204E+00
  5.183  0.614E+00  0.205E+00  0.205E+00  0.205E+00
  5.193  0.616E+00  0.205E+00  0.205E+00  0.205E+00
  5.203  0.617E+00  0.206E+00  0.206E+00  0.206E+00
  5.213  0.617E+00  0.206E+00  0.206E+00  0.206E+00
  5.223  0.616E+00  0.205E+00  0.205E+00  0.205E+00
  5.233  0.614E+00  0.205E+00  0.205E+00  0.205E+00
  5.243  0.610E+00  0.203E+00  0.203E+00  0.203E+00
  5.253  0.606E+00  0.202E+00  0.202E+00  0.202E+00
  5.263  0.601E+00  0.200E+00  0.200E+00  0.200E+00
  5.273  0.595E+00  0.198E+00  0.198E+00  0.198E+00
  5.283  0.588E+00  0.196E+00  0.196E+00  0.196E+00
  5.293  0.580E+00  0.193E+00  0.193E+00  0.193E+00
  5.303  0.573E+00  0.191E+00  0.191E+00  0.191E+00
  5.313  0.564E+00  0.188E+00  0.188E+00  0.188E+00
  5.323  0.556E+00  0.185E+00  0.185E+00  0.185E+00
  5.333  0.547E+00  0.182E+00  0.182E+00  0.182E+00
  5.343  0.538E+00  0.179E+00  0.179E+00  0.179E+00
  5.353  0.529E+00  0.176E+00  0.176E+00  0.176E+00
  5.363  0.520E+00  0.173E+00  0.173E+00  0.173E+00
  5.373  0.512E+00  0.171E+00  0.171E+00  0.171E+00
  5.383  0.504E+00  0.168E+00  0.168E+00  0.168E+00
  5.393  0.496E+00  0.165E+00  0.165E+00  0.165E+00
  5.403  0.489E+00  0.163E+00  0.163E+00  0.163E+00
  5.413  0.483E+00  0.161E+00  0.161E+00  0.161E+00
  5.423  0.477E+00  0.159E+00  0.159E+00  0.159E+00
  5.433  0.472E+00  0.157E+00  0.157E+00  0.157E+00
  5.443  0.468E+00  0.156E+00  0.156E+00  0.156E+00
  5.453  0.465E+00  0.155E+00  0.155E+00  0.155E+00
  5.463  0.462E+00  0.154E+00  0.154E+00  0.154E+00
  5.473  0.461E+00  0.154E+00  0.154E+00  0.154E+00
  5.483  0.460E+00  0.153E+00  0.153E+00  0.153E+00
  5.493  0.460E+00  0.153E+00  0.153E+00  0.153E+00
  5.503  0.461E+00  0.154E+00  0.154E+00  0.154E+00
  5.513  0.463E+00  0.154E+00  0.154E+00  0.154E+00
  5.523  0.466E+00  0.155E+00  0.155E+00  0.155E+00
  5.533  0.469E+00  0.156E+00  0.156E+00  0.156E+00
  5.543  0.473E+00  0.158E+00  0.158E+00  0.158E+00
  5.553  0.477E+00  0.159E+00  0.159E+00  0.159E+00
  5.563  0.482E+00  0.161E+00  0.161E+00  0.161E+00
  5.573  0.487E+00  0.162E+00  0.162E+00  0.162E+00
  5.583  0.492E+00  0.164E+00  0.164E+00  0.164E+00
  5.593  0.497E+00  0.166E+00  0.166E+00  0.166E+00
  5.603  0.503E+00  0.168E+00  0.168E+00  0.168E+00
  5.613  0.508E+00  0.169E+00  0.169E+00  0.169E+00
  5.623  0.513E+00  0.171E+00  0.171E+00  0.171E+00
  5.633  0.518E+00  0.173E+00  0.173E+00  0.173E+00
  5.643  0.522E+00  0.174E+00  0.174E+00  0.174E+00
  5.653  0.526E+00  0.175E+00  0.175E+00  0.175E+00
  5.663  0.529E+00  0.176E+00  0.176E+00  0.176E+00
  5.673  0.532E+00  0.177E+00  0.177E+00  0.177E+00
  5.683  0.533E+00  0.178E+00  0.178E+00  0.178E+00
  5.693  0.534E+00  0.178E+00  0.178E+00  0.178E+00
  5.703  0.534E+00  0.178E+00  0.178E+00  0.178E+00
  5.713  0.533E+00  0.178E+00  0.178E+00  0.178E+00
  5.723  0.530E+00  0.177E+00  0.177E+00  0.177E+00
  5.733  0.527E+00  0.176E+00  0.176E+00  0.176E+00
  5.743  0.523E+00  0.174E+00  0.174E+00  0.174E+00
  5.753  0.517E+00  0.172E+00  0.172E+00  0.172E+00
  5.763  0.510E+00  0.170E+00  0.170E+00  0.170E+00
  5.773  0.503E+00  0.168E+00  0.168E+00  0.168E+00
  5.783  0.494E+00  0.165E+00  0.165E+00  0.165E+00
  5.793  0.484E+00  0.161E+00  0.161E+00  0.161E+00
  5.803  0.473E+00  0.158E+00  0.158E+00  0.158E+00
  5.813  0.462E+00  0.154E+00  0.154E+00  0.154E+00
  5.823  0.449E+00  0.150E+00  0.150E+00  0.150E+00
  5.833  0.436E+00  0.145E+00  0.145E+00  0.145E+00
  5.843  0.422E+00  0.141E+00  0.141E+00  0.141E+00
  5.853  0.408E+00  0.136E+00  0.136E+00  0.136E+00
  5.863  0.393E+00  0.131E+00  0.131E+00  0.131E+00
  5.873  0.378E+00  0.126E+00  0.126E+00  0.126E+00
  5.883  0.362E+00  0.121E+00  0.121E+00  0.121E+00
  5.893  0.346E+00  0.115E+00  0.115E+00  0.115E+00
  5.903  0.330E+00  0.110E+00  0.110E+00  0.110E+00
  5.913  0.314E+00  0.105E+00  0.105E+00  0.105E+00
  5.923  0.298E+00  0.992E-01  0.992E-01  0.992E-01
  5.933  0.282E+00  0.939E-01  0.939E-01  0.939E-01
  5.943  0.266E+00  0.886E-01  0.886E-01  0.886E-01
  5.953  0.250E+00  0.835E-01  0.835E-01  0.835E-01
  5.963  0.235E+00  0.784E-01  0.784E-01  0.784E-01
  5.973  0.221E+00  0.735E-01  0.735E-01  0.735E-01
  5.983  0.206E+00  0.687E-01  0.687E-01  0.687E-01
  5.993  0.192E+00  0.641E-01  0.641E-01  0.641E-01
  6.003  0.179E+00  0.597E-01  0.597E-01  0.597E-01
  6.013  0.166E+00  0.555E-01  0.555E-01  0.555E-01
  6.023  0.154E+00  0.515E-01  0.515E-01  0.515E-01
  6.033  0.143E+00  0.477E-01  0.477E-01  0.477E-01
  6.043  0.132E+00  0.441E-01  0.441E-01  0.441E-01
  6.053  0.122E+00  0.408E-01  0.408E-01  0.408E-01
  6.063  0.113E+00  0.376E-01  0.376E-01  0.376E-01
  6.073  0.104E+00  0.347E-01  0.347E-01  0.347E-01
  6.083  0.962E-01  0.321E-01  0.321E-01  0.321E-01
  6.093  0.889E-01  0.296E-01  0.296E-01  0.296E-01
  6.103  0.823E-01  0.274E-01  0.274E-01  0.274E-01
  6.113  0.763E-01  0.254E-01  0.254E-01  0.254E-01
  6.123  0.710E-01  0.237E-01  0.237E-01  0.237E-01
  6.133  0.663E-01  0.221E-01  0.221E-01  0.221E-01
  6.143  0.622E-01  0.207E-01  0.207E-01  0.207E-01
  6.153  0.587E-01  0.196E-01  0.196E-01  0.196E-01
  6.163  0.558E-01  0.186E-01  0.186E-01  0.186E-01
  6.173  0.533E-01  0.178E-01  0.178E-01  0.178E-01
  6.183  0.514E-01  0.171E-01  0.171E-01  0.171E-01
  6.193  0.500E-01  0.167E-01  0.167E-01  0.167E-01
  6.203  0.491E-01  0.164E-01  0.164E-01  0.164E-01
  6.213  0.486E-01  0.162E-01  0.162E-01  0.162E-01
  6.223  0.484E-01  0.161E-01  0.161E-01  0.161E-01
  6.233  0.487E-01  0.162E-01  0.162E-01  0.162E-01
  6.243  0.492E-01  0.164E-01  0.164E-01  0.164E-01
  6.253  0.501E-01  0.167E-01  0.167E-01  0.167E-01
  6.263  0.513E-01  0.171E-01  0.171E-01  0.171E-01
  6.273  0.527E-01  0.176E-01  0.176E-01  0.176E-01
  6.283  0.544E-01  0.181E-01  0.181E-01  0.181E-01
  6.293  0.562E-01  0.187E-01  0.187E-01  0.187E-01
  6.303  0.583E-01  0.194E-01  0.194E-01  0.194E-01
  6.313  0.604E-01  0.201E-01  0.201E-01  0.201E-01
  6.323  0.627E-01  0.209E-01  0.209E-01  0.209E-01
  6.333  0.650E-01  0.217E-01  0.217E-01  0.217E-01
  6.343  0.674E-01  0.225E-01  0.225E-01  0.225E-01
  6.353  0.699E-01  0.233E-01  0.233E-01  0.233E-01
  6.363  0.723E-01  0.241E-01  0.241E-01  0.241E-01
  6.373  0.747E-01  0.249E-01  0.249E-01  0.249E-01
  6.383  0.770E-01  0.257E-01  0.257E-01  0.257E-01
  6.393  0.793E-01  0.264E-01  0.264E-01  0.264E-01
  6.403  0.815E-01  0.272E-01  0.272E-01  0.272E-01
  6.413  0.836E-01  0.279E-01  0.279E-01  0.279E-01
  6.423  0.855E-01  0.285E-01  0.285E-01  0.285E-01
  6.433  0.873E-01  0.291E-01  0.291E-01  0.291E-01
  6.443  0.889E-01  0.296E-01  0.296E-01  0.296E-01
  6.453  0.903E-01  0.301E-01  0.301E-01  0.301E-01
  6.463  0.915E-01  0.305E-01  0.305E-01  0.305E-01
  6.473  0.925E-01  0.308E-01  0.308E-01  0.308E-01
  6.483  0.933E-01  0.311E-01  0.311E-01  0.311E-01
  6.493  0.939E-01  0.313E-01  0.313E-01  0.313E-01
  6.503  0.942E-01  0.314E-01  0.314E-01  0.314E-01
  6.513  0.943E-01  0.314E-01  0.314E-01  0.314E-01
  6.523  0.942E-01  0.314E-01  0.314E-01  0.314E-01
  6.533  0.938E-01  0.313E-01  0.313E-01  0.313E-01
  6.543  0.933E-01  0.311E-01  0.311E-01  0.311E-01
  6.553  0.925E-01  0.308E-01  0.308E-01  0.308E-01
  6.563  0.915E-01  0.305E-01  0.305E-01  0.305E-01
  6.573  0.903E-01  0.301E-01  0.301E-01  0.301E-01
  6.583  0.890E-01  0.297E-01  0.297E-01  0.297E-01
  6.593  0.875E-01  0.292E-01  0.292E-01  0.292E-01
  6.603  0.859E-01  0.286E-01  0.286E-01  0.286E-01
  6.613  0.841E-01  0.280E-01  0.280E-01  0.280E-01
  6.623  0.823E-01  0.274E-01  0.274E-01  0.274E-01
  6.633  0.803E-01  0.268E-01  0.268E-01  0.268E-01
  6.643  0.784E-01  0.261E-01  0.261E-01  0.261E-01
  6.653  0.764E-01  0.255E-01  0.255E-01  0.255E-01
  6.663  0.743E-01  0.248E-01  0.248E-01  0.248E-01
  6.673  0.723E-01  0.241E-01  0.241E-01  0.241E-01
  6.683  0.703E-01  0.234E-01  0.234E-01  0.234E-01
  6.693  0.684E-01  0.228E-01  0.228E-01  0.228E-01
  6.703  0.666E-01  0.222E-01  0.222E-01  0.222E-01
  6.713  0.649E-01  0.216E-01  0.216E-01  0.216E-01
  6.723  0.633E-01  0.211E-01  0.211E-01  0.211E-01
  6.733  0.618E-01  0.206E-01  0.206E-01  0.206E-01
  6.743  0.605E-01  0.202E-01  0.202E-01  0.202E-01
  6.753  0.593E-01  0.198E-01  0.198E-01  0.198E-01
  6.763  0.584E-01  0.195E-01  0.195E-01  0.195E-01
  6.773  0.576E-01  0.192E-01  0.192E-01  0.192E-01
  6.783  0.570E-01  0.190E-01  0.190E-01  0.190E-01
  6.793  0.567E-01  0.189E-01  0.189E-01  0.189E-01
  6.803  0.565E-01  0.188E-01  0.188E-01  0.188E-01
  6.813  0.566E-01  0.189E-01  0.189E-01  0.189E-01
  6.823  0.569E-01  0.190E-01  0.190E-01  0.190E-01
  6.833  0.574E-01  0.191E-01  0.191E-01  0.191E-01
  6.843  0.581E-01  0.194E-01  0.194E-01  0.194E-01
  6.853  0.591E-01  0.197E-01  0.197E-01  0.197E-01
  6.863  0.602E-01  0.201E-01  0.201E-01  0.201E-01
  6.873  0.615E-01  0.205E-01  0.205E-01  0.205E-01
  6.883  0.630E-01  0.210E-01  0.210E-01  0.210E-01
  6.893  0.647E-01  0.216E-01  0.216E-01  0.216E-01
  6.903  0.665E-01  0.222E-01  0.222E-01  0.222E-01
  6.913  0.684E-01  0.228E-01  0.228E-01  0.228E-01
  6.923  0.704E-01  0.235E-01  0.235E-01  0.235E-01
  6.933  0.726E-01  0.242E-01  0.242E-01  0.242E-01
  6.943  0.748E-01  0.249E-01  0.249E-01  0.249E-01
  6.953  0.770E-01  0.257E-01  0.257E-01  0.257E-01
  6.963  0.793E-01  0.264E-01  0.264E-01  0.264E-01
  6.973  0.817E-01  0.272E-01  0.272E-01  0.272E-01
  6.983  0.840E-01  0.280E-01  0.280E-01  0.280E-01
  6.993  0.863E-01  0.288E-01  0.288E-01  0.288E-01
  7.003  0.885E-01  0.295E-01  0.295E-01  0.295E-01
  7.013  0.908E-01  0.303E-01  0.303E-01  0.303E-01
  7.023  0.929E-01  0.310E-01  0.310E-01  0.310E-01
  7.033  0.949E-01  0.316E-01  0.316E-01  0.316E-01
  7.043  0.969E-01  0.323E-01  0.323E-01  0.323E-01
  7.053  0.988E-01  0.329E-01  0.329E-01  0.329E-01
  7.063  0.101E+00  0.335E-01  0.335E-01  0.335E-01
  7.073  0.102E+00  0.340E-01  0.340E-01  0.340E-01
  7.083  0.104E+00  0.345E-01  0.345E-01  0.345E-01
  7.093  0.105E+00  0.350E-01  0.350E-01  0.350E-01
  7.103  0.106E+00  0.354E-01  0.354E-01  0.354E-01
  7.113  0.107E+00  0.358E-01  0.358E-01  0.358E-01
  7.123  0.108E+00  0.362E-01  0.362E-01  0.362E-01
  7.133  0.109E+00  0.365E-01  0.365E-01  0.365E-01
  7.143  0.110E+00  0.367E-01  0.367E-01  0.367E-01
  7.153  0.111E+00  0.370E-01  0.370E-01  0.370E-01
  7.163  0.112E+00  0.372E-01  0.372E-01  0.372E-01
  7.173  0.112E+00  0.374E-01  0.374E-01  0.374E-01
  7.183  0.113E+00  0.376E-01  0.376E-01  0.376E-01
  7.193  0.113E+00  0.378E-01  0.378E-01  0.378E-01
  7.203  0.114E+00  0.380E-01  0.380E-01  0.380E-01
  7.213  0.115E+00  0.382E-01  0.382E-01  0.382E-01
  7.223  0.115E+00  0.384E-01  0.384E-01  0.384E-01
  7.233  0.116E+00  0.386E-01  0.386E-01  0.386E-01
  7.243  0.116E+00  0.388E-01  0.388E-01  0.388E-01
  7.253  0.117E+00  0.391E-01  0.391E-01  0.391E-01
  7.263  0.118E+00  0.394E-01  0.394E-01  0.394E-01
  7.273  0.119E+00  0.397E-01  0.397E-01  0.397E-01
  7.283  0.120E+00  0.401E-01  0.401E-01  0.401E-01
  7.293  0.121E+00  0.405E-01  0.405E-01  0.405E-01
  7.303  0.123E+00  0.409E-01  0.409E-01  0.409E-01
  7.313  0.124E+00  0.414E-01  0.414E-01  0.414E-01
  7.323  0.126E+00  0.420E-01  0.420E-01  0.420E-01
  7.333  0.128E+00  0.426E-01  0.426E-01  0.426E-01
  7.343  0.130E+00  0.433E-01  0.433E-01  0.433E-01
  7.353  0.132E+00  0.440E-01  0.440E-01  0.440E-01
  7.363  0.134E+00  0.448E-01  0.448E-01  0.448E-01
  7.373  0.137E+00  0.456E-01  0.456E-01  0.456E-01
  7.383  0.140E+00  0.465E-01  0.465E-01  0.465E-01
  7.393  0.142E+00  0.475E-01  0.475E-01  0.475E-01
  7.403  0.145E+00  0.485E-01  0.485E-01  0.485E-01
  7.413  0.149E+00  0.496E-01  0.496E-01  0.496E-01
  7.423  0.152E+00  0.507E-01  0.507E-01  0.507E-01
  7.433  0.156E+00  0.518E-01  0.518E-01  0.518E-01
  7.443  0.159E+00  0.531E-01  0.531E-01  0.531E-01
  7.453  0.163E+00  0.543E-01  0.543E-01  0.543E-01
  7.463  0.167E+00  0.557E-01  0.557E-01  0.557E-01
  7.473  0.171E+00  0.571E-01  0.571E-01  0.571E-01
  7.483  0.176E+00  0.585E-01  0.585E-01  0.585E-01
  7.493  0.180E+00  0.600E-01  0.600E-01  0.600E-01
  7.503  0.185E+00  0.616E-01  0.616E-01  0.616E-01
  7.513  0.190E+00  0.632E-01  0.632E-01  0.632E-01
  7.523  0.195E+00  0.650E-01  0.650E-01  0.650E-01
  7.533  0.200E+00  0.668E-01  0.668E-01  0.668E-01
  7.543  0.206E+00  0.686E-01  0.686E-01  0.686E-01
  7.553  0.212E+00  0.706E-01  0.706E-01  0.706E-01
  7.563  0.218E+00  0.726E-01  0.726E-01  0.726E-01
  7.573  0.224E+00  0.747E-01  0.747E-01  0.747E-01
  7.583  0.231E+00  0.770E-01  0.770E-01  0.770E-01
  7.593  0.238E+00  0.793E-01  0.793E-01  0.793E-01
  7.603  0.245E+00  0.818E-01  0.818E-01  0.818E-01
  7.613  0.253E+00  0.843E-01  0.843E-01  0.843E-01
  7.623  0.261E+00  0.870E-01  0.870E-01  0.870E-01
  7.633  0.269E+00  0.897E-01  0.897E-01  0.897E-01
  7.643  0.278E+00  0.926E-01  0.926E-01  0.926E-01
  7.653  0.287E+00  0.956E-01  0.956E-01  0.956E-01
  7.663  0.296E+00  0.987E-01  0.987E-01  0.987E-01
  7.673  0.306E+00  0.102E+00  0.102E+00  0.102E+00
  7.683  0.315E+00  0.105E+00  0.105E+00  0.105E+00
  7.693  0.326E+00  0.109E+00  0.109E+00  0.109E+00
  7.703  0.336E+00  0.112E+00  0.112E+00  0.112E+00
  7.713  0.346E+00  0.115E+00  0.115E+00  0.115E+00
  7.723  0.357E+00  0.119E+00  0.119E+00  0.119E+00
  7.733  0.367E+00  0.122E+00  0.122E+00  0.122E+00
  7.743  0.378E+00  0.126E+00  0.126E+00  0.126E+00
  7.753  0.389E+00  0.130E+00  0.130E+00  0.130E+00
  7.763  0.399E+00  0.133E+00  0.133E+00  0.133E+00
  7.773  0.409E+00  0.136E+00  0.136E+00  0.136E+00
  7.783  0.419E+00  0.140E+00  0.140E+00  0.140E+00
  7.793  0.429E+00  0.143E+00  0.143E+00  0.143E+00
  7.803  0.438E+00  0.146E+00  0.146E+00  0.146E+00
  7.813  0.447E+00  0.149E+00  0.149E+00  0.149E+00
  7.823  0.455E+00  0.152E+00  0.152E+00  0.152E+00
  7.833  0.462E+00  0.154E+00  0.154E+00  0.154E+00
  7.843  0.469E+00  0.156E+00  0.156E+00  0.156E+00
  7.853  0.475E+00  0.158E+00  0.158E+00  0.158E+00
  7.863  0.480E+00  0.160E+00  0.160E+00  0.160E+00
  7.873  0.484E+00  0.161E+00  0.161E+00  0.161E+00
  7.883  0.488E+00  0.163E+00  0.163E+00  0.163E+00
  7.893  0.490E+00  0.163E+00  0.163E+00  0.163E+00
  7.903  0.491E+00  0.164E+00  0.164E+00  0.164E+00
  7.913  0.491E+00  0.164E+00  0.164E+00  0.164E+00
  7.923  0.490E+00  0.163E+00  0.163E+00  0.163E+00
  7.933  0.488E+00  0.163E+00  0.163E+00  0.163E+00
  7.943  0.485E+00  0.162E+00  0.162E+00  0.162E+00
  7.953  0.481E+00  0.160E+00  0.160E+00  0.160E+00
  7.963  0.476E+00  0.159E+00  0.159E+00  0.159E+00
  7.973  0.469E+00  0.156E+00  0.156E+00  0.156E+00
  7.983  0.462E+00  0.154E+00  0.154E+00  0.154E+00
  7.993  0.454E+00  0.151E+00  0.151E+00  0.151E+00
  8.003  0.445E+00  0.148E+00  0.148E+00  0.148E+00
  8.013  0.435E+00  0.145E+00  0.145E+00  0.145E+00
  8.023  0.424E+00  0.141E+00  0.141E+00  0.141E+00
  8.033  0.413E+00  0.138E+00  0.138E+00  0.138E+00
  8.043  0.401E+00  0.134E+00  0.134E+00  0.134E+00
  8.053  0.389E+00  0.130E+00  0.130E+00  0.130E+00
  8.063  0.376E+00  0.125E+00  0.125E+00  0.125E+00
  8.073  0.363E+00  0.121E+00  0.121E+00  0.121E+00
  8.083  0.350E+00  0.117E+00  0.117E+00  0.117E+00
  8.093  0.337E+00  0.112E+00  0.112E+00  0.112E+00
  8.103  0.323E+00  0.108E+00  0.108E+00  0.108E+00
  8.113  0.310E+00  0.103E+00  0.103E+00  0.103E+00
  8.123  0.297E+00  0.990E-01  0.990E-01  0.990E-01
  8.133  0.284E+00  0.946E-01  0.946E-01  0.946E-01
  8.143  0.271E+00  0.904E-01  0.904E-01  0.904E-01
  8.153  0.259E+00  0.863E-01  0.863E-01  0.863E-01
  8.163  0.247E+00  0.823E-01  0.823E-01  0.823E-01
  8.173  0.235E+00  0.784E-01  0.785E-01  0.784E-01
  8.183  0.224E+00  0.748E-01  0.748E-01  0.748E-01
  8.193  0.214E+00  0.713E-01  0.713E-01  0.713E-01
  8.203  0.204E+00  0.681E-01  0.681E-01  0.681E-01
  8.213  0.195E+00  0.650E-01  0.650E-01  0.650E-01
  8.223  0.186E+00  0.621E-01  0.621E-01  0.621E-01
  8.233  0.179E+00  0.595E-01  0.595E-01  0.595E-01
  8.243  0.171E+00  0.571E-01  0.571E-01  0.571E-01
  8.253  0.165E+00  0.550E-01  0.550E-01  0.550E-01
  8.263  0.159E+00  0.530E-01  0.530E-01  0.530E-01
  8.273  0.154E+00  0.513E-01  0.513E-01  0.513E-01
  8.283  0.149E+00  0.498E-01  0.498E-01  0.498E-01
  8.293  0.145E+00  0.485E-01  0.485E-01  0.485E-01
  8.303  0.142E+00  0.474E-01  0.474E-01  0.474E-01
  8.313  0.139E+00  0.465E-01  0.465E-01  0.465E-01
  8.323  0.137E+00  0.458E-01  0.458E-01  0.458E-01
  8.333  0.136E+00  0.453E-01  0.453E-01  0.453E-01
  8.343  0.135E+00  0.449E-01  0.449E-01  0.449E-01
  8.353  0.134E+00  0.447E-01  0.447E-01  0.447E-01
  8.363  0.134E+00  0.446E-01  0.446E-01  0.446E-01
  8.373  0.134E+00  0.447E-01  0.447E-01  0.447E-01
  8.383  0.135E+00  0.449E-01  0.449E-01  0.449E-01
  8.393  0.136E+00  0.453E-01  0.453E-01  0.453E-01
  8.403  0.137E+00  0.457E-01  0.457E-01  0.457E-01
  8.413  0.139E+00  0.463E-01  0.463E-01  0.463E-01
  8.423  0.141E+00  0.469E-01  0.469E-01  0.469E-01
  8.433  0.143E+00  0.476E-01  0.476E-01  0.476E-01
  8.443  0.145E+00  0.484E-01  0.484E-01  0.484E-01
  8.453  0.148E+00  0.493E-01  0.493E-01  0.493E-01
  8.463  0.151E+00  0.503E-01  0.503E-01  0.503E-01
  8.473  0.154E+00  0.513E-01  0.513E-01  0.513E-01
  8.483  0.157E+00  0.524E-01  0.524E-01  0.524E-01
  8.493  0.161E+00  0.536E-01  0.536E-01  0.536E-01
  8.503  0.164E+00  0.548E-01  0.548E-01  0.548E-01
  8.513  0.168E+00  0.561E-01  0.561E-01  0.561E-01
  8.523  0.172E+00  0.575E-01  0.575E-01  0.575E-01
  8.533  0.177E+00  0.589E-01  0.589E-01  0.589E-01
  8.543  0.181E+00  0.604E-01  0.604E-01  0.604E-01
  8.553  0.186E+00  0.620E-01  0.620E-01  0.620E-01
  8.563  0.191E+00  0.636E-01  0.636E-01  0.636E-01
  8.573  0.196E+00  0.653E-01  0.653E-01  0.653E-01
  8.583  0.201E+00  0.671E-01  0.671E-01  0.671E-01
  8.593  0.207E+00  0.689E-01  0.689E-01  0.689E-01
  8.603  0.212E+00  0.708E-01  0.708E-01  0.708E-01
  8.613  0.218E+00  0.728E-01  0.728E-01  0.728E-01
  8.623  0.224E+00  0.748E-01  0.748E-01  0.748E-01
  8.633  0.231E+00  0.769E-01  0.769E-01  0.769E-01
  8.643  0.237E+00  0.790E-01  0.790E-01  0.790E-01
  8.653  0.244E+00  0.812E-01  0.812E-01  0.812E-01
  8.663  0.250E+00  0.835E-01  0.835E-01  0.835E-01
  8.673  0.257E+00  0.857E-01  0.857E-01  0.857E-01
  8.683  0.264E+00  0.880E-01  0.880E-01  0.880E-01
  8.693  0.271E+00  0.902E-01  0.902E-01  0.902E-01
  8.703  0.278E+00  0.925E-01  0.925E-01  0.925E-01
  8.713  0.284E+00  0.947E-01  0.947E-01  0.947E-01
  8.723  0.291E+00  0.969E-01  0.969E-01  0.969E-01
  8.733  0.297E+00  0.991E-01  0.991E-01  0.991E-01
  8.743  0.304E+00  0.101E+00  0.101E+00  0.101E+00
  8.753  0.310E+00  0.103E+00  0.103E+00  0.103E+00
  8.763  0.315E+00  0.105E+00  0.105E+00  0.105E+00
  8.773  0.321E+00  0.107E+00  0.107E+00  0.107E+00
  8.783  0.325E+00  0.108E+00  0.108E+00  0.108E+00
  8.793  0.330E+00  0.110E+00  0.110E+00  0.110E+00
  8.803  0.334E+00  0.111E+00  0.111E+00  0.111E+00
  8.813  0.337E+00  0.112E+00  0.112E+00  0.112E+00
  8.823  0.340E+00  0.113E+00  0.113E+00  0.113E+00
  8.833  0.342E+00  0.114E+00  0.114E+00  0.114E+00
  8.843  0.344E+00  0.115E+00  0.115E+00  0.115E+00
  8.853  0.345E+00  0.115E+00  0.115E+00  0.115E+00
  8.863  0.345E+00  0.115E+00  0.115E+00  0.115E+00
  8.873  0.344E+00  0.115E+00  0.115E+00  0.115E+00
  8.883  0.343E+00  0.114E+00  0.114E+00  0.114E+00
  8.893  0.341E+00  0.114E+00  0.114E+00  0.114E+00
  8.903  0.338E+00  0.113E+00  0.113E+00  0.113E+00
  8.913  0.335E+00  0.112E+00  0.112E+00  0.112E+00
  8.923  0.331E+00  0.110E+00  0.110E+00  0.110E+00
  8.933  0.326E+00  0.109E+00  0.109E+00  0.109E+00
  8.943  0.320E+00  0.107E+00  0.107E+00  0.107E+00
  8.953  0.314E+00  0.105E+00  0.105E+00  0.105E+00
  8.963  0.308E+00  0.103E+00  0.103E+00  0.103E+00
  8.973  0.300E+00  0.100E+00  0.100E+00  0.100E+00
  8.983  0.293E+00  0.975E-01  0.975E-01  0.975E-01
  8.993  0.284E+00  0.948E-01  0.948E-01  0.948E-01
  9.003  0.276E+00  0.919E-01  0.919E-01  0.919E-01
  9.013  0.267E+00  0.889E-01  0.889E-01  0.889E-01
  9.023  0.258E+00  0.858E-01  0.858E-01  0.858E-01
  9.033  0.248E+00  0.827E-01  0.827E-01  0.827E-01
  9.043  0.238E+00  0.795E-01  0.795E-01  0.795E-01
  9.053  0.229E+00  0.762E-01  0.762E-01  0.762E-01
  9.063  0.219E+00  0.730E-01  0.730E-01  0.730E-01
  9.073  0.209E+00  0.697E-01  0.697E-01  0.697E-01
  9.083  0.199E+00  0.665E-01  0.665E-01  0.665E-01
  9.093  0.190E+00  0.633E-01  0.633E-01  0.633E-01
  9.103  0.180E+00  0.601E-01  0.601E-01  0.601E-01
  9.113  0.171E+00  0.571E-01  0.571E-01  0.571E-01
  9.123  0.162E+00  0.541E-01  0.541E-01  0.541E-01
  9.133  0.154E+00  0.512E-01  0.512E-01  0.512E-01
  9.143  0.145E+00  0.485E-01  0.485E-01  0.485E-01
  9.153  0.138E+00  0.459E-01  0.459E-01  0.459E-01
  9.163  0.130E+00  0.434E-01  0.434E-01  0.434E-01
  9.173  0.123E+00  0.411E-01  0.411E-01  0.411E-01
  9.183  0.117E+00  0.389E-01  0.389E-01  0.389E-01
  9.193  0.111E+00  0.369E-01  0.369E-01  0.369E-01
  9.203  0.105E+00  0.351E-01  0.351E-01  0.351E-01
  9.213  0.100E+00  0.335E-01  0.335E-01  0.335E-01
  9.223  0.960E-01  0.320E-01  0.320E-01  0.320E-01
  9.233  0.923E-01  0.308E-01  0.308E-01  0.308E-01
  9.243  0.891E-01  0.297E-01  0.297E-01  0.297E-01
  9.253  0.866E-01  0.289E-01  0.289E-01  0.289E-01
  9.263  0.846E-01  0.282E-01  0.282E-01  0.282E-01
  9.273  0.832E-01  0.277E-01  0.277E-01  0.277E-01
  9.283  0.825E-01  0.275E-01  0.275E-01  0.275E-01
  9.293  0.823E-01  0.274E-01  0.274E-01  0.274E-01
  9.303  0.828E-01  0.276E-01  0.276E-01  0.276E-01
  9.313  0.838E-01  0.279E-01  0.279E-01  0.279E-01
  9.323  0.855E-01  0.285E-01  0.285E-01  0.285E-01
  9.333  0.878E-01  0.293E-01  0.293E-01  0.293E-01
  9.343  0.906E-01  0.302E-01  0.302E-01  0.302E-01
  9.353  0.941E-01  0.314E-01  0.314E-01  0.314E-01
  9.363  0.982E-01  0.327E-01  0.327E-01  0.327E-01
  9.373  0.103E+00  0.343E-01  0.343E-01  0.343E-01
  9.383  0.108E+00  0.360E-01  0.360E-01  0.360E-01
  9.393  0.114E+00  0.379E-01  0.379E-01  0.379E-01
  9.403  0.120E+00  0.401E-01  0.401E-01  0.401E-01
  9.413  0.127E+00  0.424E-01  0.424E-01  0.424E-01
  9.423  0.135E+00  0.449E-01  0.449E-01  0.449E-01
  9.433  0.143E+00  0.475E-01  0.475E-01  0.475E-01
  9.443  0.151E+00  0.504E-01  0.504E-01  0.504E-01
  9.453  0.160E+00  0.534E-01  0.534E-01  0.534E-01
  9.463  0.170E+00  0.566E-01  0.566E-01  0.566E-01
  9.473  0.180E+00  0.600E-01  0.600E-01  0.600E-01
  9.483  0.191E+00  0.635E-01  0.635E-01  0.635E-01
  9.493  0.202E+00  0.672E-01  0.672E-01  0.672E-01
  9.503  0.213E+00  0.711E-01  0.711E-01  0.711E-01
  9.513  0.225E+00  0.751E-01  0.751E-01  0.751E-01
  9.523  0.238E+00  0.792E-01  0.792E-01  0.792E-01
  9.533  0.251E+00  0.835E-01  0.835E-01  0.835E-01
  9.543  0.264E+00  0.879E-01  0.879E-01  0.879E-01
  9.553  0.277E+00  0.925E-01  0.925E-01  0.925E-01
  9.563  0.291E+00  0.971E-01  0.971E-01  0.971E-01
  9.573  0.305E+00  0.102E+00  0.102E+00  0.102E+00
  9.583  0.320E+00  0.107E+00  0.107E+00  0.107E+00
  9.593  0.335E+00  0.112E+00  0.112E+00  0.112E+00
  9.603  0.349E+00  0.116E+00  0.116E+00  0.116E+00
  9.613  0.364E+00  0.121E+00  0.121E+00  0.121E+00
  9.623  0.379E+00  0.126E+00  0.126E+00  0.126E+00
  9.633  0.394E+00  0.131E+00  0.131E+00  0.131E+00
  9.643  0.409E+00  0.136E+00  0.136E+00  0.136E+00
  9.653  0.424E+00  0.141E+00  0.141E+00  0.141E+00
  9.663  0.439E+00  0.146E+00  0.146E+00  0.146E+00
  9.673  0.454E+00  0.151E+00  0.151E+00  0.151E+00
  9.683  0.468E+00  0.156E+00  0.156E+00  0.156E+00
  9.693  0.482E+00  0.161E+00  0.161E+00  0.161E+00
  9.703  0.495E+00  0.165E+00  0.165E+00  0.165E+00
  9.713  0.508E+00  0.169E+00  0.169E+00  0.169E+00
  9.723  0.521E+00  0.174E+00  0.174E+00  0.174E+00
  9.733  0.532E+00  0.177E+00  0.177E+00  0.177E+00
  9.743  0.544E+00  0.181E+00  0.181E+00  0.181E+00
  9.753  0.554E+00  0.185E+00  0.185E+00  0.185E+00
  9.763  0.563E+00  0.188E+00  0.188E+00  0.188E+00
  9.773  0.572E+00  0.191E+00  0.191E+00  0.191E+00
  9.783  0.580E+00  0.193E+00  0.193E+00  0.193E+00
  9.793  0.586E+00  0.195E+00  0.195E+00  0.195E+00
  9.803  0.592E+00  0.197E+00  0.197E+00  0.197E+00
  9.813  0.597E+00  0.199E+00  0.199E+00  0.199E+00
  9.823  0.600E+00  0.200E+00  0.200E+00  0.200E+00
  9.833  0.602E+00  0.201E+00  0.201E+00  0.201E+00
  9.843  0.603E+00  0.201E+00  0.201E+00  0.201E+00
  9.853  0.603E+00  0.201E+00  0.201E+00  0.201E+00
  9.863  0.601E+00  0.200E+00  0.200E+00  0.200E+00
  9.873  0.599E+00  0.200E+00  0.200E+00  0.200E+00
  9.883  0.595E+00  0.198E+00  0.198E+00  0.198E+00
  9.893  0.590E+00  0.197E+00  0.197E+00  0.197E+00
  9.903  0.583E+00  0.194E+00  0.194E+00  0.194E+00
  9.913  0.576E+00  0.192E+00  0.192E+00  0.192E+00
  9.923  0.567E+00  0.189E+00  0.189E+00  0.189E+00
  9.933  0.557E+00  0.186E+00  0.186E+00  0.186E+00
  9.943  0.546E+00  0.182E+00  0.182E+00  0.182E+00
  9.953  0.534E+00  0.178E+00  0.178E+00  0.178E+00
  9.963  0.522E+00  0.174E+00  0.174E+00  0.174E+00
  9.973  0.508E+00  0.169E+00  0.169E+00  0.169E+00
  9.983  0.494E+00  0.165E+00  0.165E+00  0.165E+00
  9.993  0.479E+00  0.160E+00  0.160E+00  0.160E+00
 10.003  0.463E+00  0.154E+00  0.154E+00  0.154E+00
 10.013  0.447E+00  0.149E+00  0.149E+00  0.149E+00
 10.023  0.430E+00  0.143E+00  0.143E+00  0.143E+00
 10.033  0.413E+00  0.138E+00  0.138E+00  0.138E+00
 10.043  0.396E+00  0.132E+00  0.132E+00  0.132E+00
 10.053  0.378E+00  0.126E+00  0.126E+00  0.126E+00
 10.063  0.361E+00  0.120E+00  0.120E+00  0.120E+00
 10.073  0.343E+00  0.114E+00  0.114E+00  0.114E+00
 10.083  0.326E+00  0.109E+00  0.109E+00  0.109E+00
 10.093  0.309E+00  0.103E+00  0.103E+00  0.103E+00
 10.103  0.292E+00  0.973E-01  0.973E-01  0.973E-01
 10.113  0.275E+00  0.917E-01  0.917E-01  0.917E-01
 10.123  0.259E+00  0.863E-01  0.863E-01  0.863E-01
 10.133  0.243E+00  0.810E-01  0.810E-01  0.810E-01
 10.143  0.228E+00  0.759E-01  0.759E-01  0.759E-01
 10.153  0.213E+00  0.710E-01  0.710E-01  0.710E-01
 10.163  0.199E+00  0.662E-01  0.662E-01  0.662E-01
 10.173  0.185E+00  0.617E-01  0.617E-01  0.617E-01
 10.183  0.172E+00  0.574E-01  0.574E-01  0.574E-01
 10.193  0.160E+00  0.534E-01  0.534E-01  0.534E-01
 10.203  0.149E+00  0.496E-01  0.496E-01  0.496E-01
 10.213  0.138E+00  0.460E-01  0.460E-01  0.460E-01
 10.223  0.128E+00  0.427E-01  0.427E-01  0.427E-01
 10.233  0.119E+00  0.397E-01  0.397E-01  0.397E-01
 10.243  0.111E+00  0.369E-01  0.369E-01  0.369E-01
 10.253  0.103E+00  0.343E-01  0.343E-01  0.343E-01
 10.263  0.962E-01  0.321E-01  0.321E-01  0.321E-01
 10.273  0.902E-01  0.301E-01  0.301E-01  0.301E-01
 10.283  0.850E-01  0.283E-01  0.283E-01  0.283E-01
 10.293  0.806E-01  0.269E-01  0.269E-01  0.269E-01
 10.303  0.769E-01  0.256E-01  0.256E-01  0.256E-01
 10.313  0.740E-01  0.247E-01  0.247E-01  0.247E-01
 10.323  0.719E-01  0.240E-01  0.240E-01  0.240E-01
 10.333  0.705E-01  0.235E-01  0.235E-01  0.235E-01
 10.343  0.699E-01  0.233E-01  0.233E-01  0.233E-01
 10.353  0.699E-01  0.233E-01  0.233E-01  0.233E-01
 10.363  0.707E-01  0.236E-01  0.236E-01  0.236E-01
 10.373  0.722E-01  0.241E-01  0.241E-01  0.241E-01
 10.383  0.744E-01  0.248E-01  0.248E-01  0.248E-01
 10.393  0.772E-01  0.257E-01  0.257E-01  0.257E-01
 10.403  0.807E-01  0.269E-01  0.269E-01  0.269E-01
 10.413  0.849E-01  0.283E-01  0.283E-01  0.283E-01
 10.423  0.897E-01  0.299E-01  0.299E-01  0.299E-01
 10.433  0.951E-01  0.317E-01  0.317E-01  0.317E-01
 10.443  0.101E+00  0.337E-01  0.337E-01  0.337E-01
 10.453  0.108E+00  0.359E-01  0.359E-01  0.359E-01
 10.463  0.115E+00  0.383E-01  0.383E-01  0.383E-01
 10.473  0.123E+00  0.409E-01  0.409E-01  0.409E-01
 10.483  0.131E+00  0.437E-01  0.437E-01  0.437E-01
 10.493  0.140E+00  0.466E-01  0.466E-01  0.466E-01
 10.503  0.149E+00  0.497E-01  0.497E-01  0.497E-01
 10.513  0.159E+00  0.529E-01  0.529E-01  0.529E-01
 10.523  0.169E+00  0.563E-01  0.563E-01  0.563E-01
 10.533  0.180E+00  0.598E-01  0.598E-01  0.598E-01
 10.543  0.190E+00  0.635E-01  0.635E-01  0.635E-01
 10.553  0.202E+00  0.672E-01  0.672E-01  0.672E-01
 10.563  0.213E+00  0.711E-01  0.711E-01  0.711E-01
 10.573  0.225E+00  0.750E-01  0.750E-01  0.750E-01
 10.583  0.237E+00  0.790E-01  0.790E-01  0.790E-01
 10.593  0.249E+00  0.831E-01  0.831E-01  0.831E-01
 10.603  0.262E+00  0.872E-01  0.872E-01  0.872E-01
 10.613  0.274E+00  0.913E-01  0.913E-01  0.913E-01
 10.623  0.286E+00  0.954E-01  0.954E-01  0.954E-01
 10.633  0.299E+00  0.996E-01  0.996E-01  0.996E-01
 10.643  0.311E+00  0.104E+00  0.104E+00  0.104E+00
 10.653  0.323E+00  0.108E+00  0.108E+00  0.108E+00
 10.663  0.335E+00  0.112E+00  0.112E+00  0.112E+00
 10.673  0.347E+00  0.116E+00  0.116E+00  0.116E+00
 10.683  0.359E+00  0.120E+00  0.120E+00  0.120E+00
 10.693  0.370E+00  0.123E+00  0.123E+00  0.123E+00
 10.703  0.381E+00  0.127E+00  0.127E+00  0.127E+00
 10.713  0.392E+00  0.131E+00  0.131E+00  0.131E+00
 10.723  0.402E+00  0.134E+00  0.134E+00  0.134E+00
 10.733  0.411E+00  0.137E+00  0.137E+00  0.137E+00
 10.743  0.421E+00  0.140E+00  0.140E+00  0.140E+00
 10.753  0.430E+00  0.143E+00  0.143E+00  0.143E+00
 10.763  0.438E+00  0.146E+00  0.146E+00  0.146E+00
 10.773  0.446E+00  0.149E+00  0.149E+00  0.149E+00
 10.783  0.453E+00  0.151E+00  0.151E+00  0.151E+00
 10.793  0.460E+00  0.153E+00  0.153E+00  0.153E+00
 10.803  0.466E+00  0.155E+00  0.155E+00  0.155E+00
 10.813  0.472E+00  0.157E+00  0.157E+00  0.157E+00
 10.823  0.478E+00  0.159E+00  0.159E+00  0.159E+00
 10.833  0.482E+00  0.161E+00  0.161E+00  0.161E+00
 10.843  0.487E+00  0.162E+00  0.162E+00  0.162E+00
 10.853  0.491E+00  0.164E+00  0.164E+00  0.164E+00
 10.863  0.494E+00  0.165E+00  0.165E+00  0.165E+00
 10.873  0.498E+00  0.166E+00  0.166E+00  0.166E+00
 10.883  0.500E+00  0.167E+00  0.167E+00  0.167E+00
 10.893  0.503E+00  0.168E+00  0.168E+00  0.168E+00
 10.903  0.505E+00  0.168E+00  0.168E+00  0.168E+00
 10.913  0.507E+00  0.169E+00  0.169E+00  0.169E+00
 10.923  0.509E+00  0.170E+00  0.170E+00  0.170E+00
 10.933  0.511E+00  0.170E+00  0.170E+00  0.170E+00
 10.943  0.513E+00  0.171E+00  0.171E+00  0.171E+00
 10.953  0.514E+00  0.171E+00  0.171E+00  0.171E+00
 10.963  0.516E+00  0.172E+00  0.172E+00  0.172E+00
 10.973  0.517E+00  0.172E+00  0.172E+00  0.172E+00
 10.983  0.518E+00  0.173E+00  0.173E+00  0.173E+00
 10.993  0.520E+00  0.173E+00  0.173E+00  0.173E+00
 11.003  0.521E+00  0.174E+00  0.174E+00  0.174E+00
 11.013  0.522E+00  0.174E+00  0.174E+00  0.174E+00
 11.023  0.524E+00  0.175E+00  0.175E+00  0.175E+00
 11.033  0.525E+00  0.175E+00  0.175E+00  0.175E+00
 11.043  0.527E+00  0.176E+00  0.176E+00  0.176E+00
 11.053  0.529E+00  0.176E+00  0.176E+00  0.176E+00
 11.063  0.530E+00  0.177E+00  0.177E+00  0.177E+00
 11.073  0.532E+00  0.177E+00  0.177E+00  0.177E+00
 11.083  0.534E+00  0.178E+00  0.178E+00  0.178E+00
 11.093  0.535E+00  0.178E+00  0.178E+00  0.178E+00
 11.103  0.537E+00  0.179E+00  0.179E+00  0.179E+00
 11.113  0.538E+00  0.179E+00  0.179E+00  0.179E+00
 11.123  0.540E+00  0.180E+00  0.180E+00  0.180E+00
 11.133  0.541E+00  0.180E+00  0.180E+00  0.180E+00
 11.143  0.542E+00  0.181E+00  0.181E+00  0.181E+00
 11.153  0.544E+00  0.181E+00  0.181E+00  0.181E+00
 11.163  0.545E+00  0.182E+00  0.182E+00  0.182E+00
 11.173  0.545E+00  0.182E+00  0.182E+00  0.182E+00
 11.183  0.546E+00  0.182E+00  0.182E+00  0.182E+00
 11.193  0.546E+00  0.182E+00  0.182E+00  0.182E+00
 11.203  0.546E+00  0.182E+00  0.182E+00  0.182E+00
 11.213  0.546E+00  0.182E+00  0.182E+00  0.182E+00
 11.223  0.545E+00  0.182E+00  0.182E+00  0.182E+00
 11.233  0.545E+00  0.182E+00  0.182E+00  0.182E+00
 11.243  0.543E+00  0.181E+00  0.181E+00  0.181E+00
 11.253  0.542E+00  0.181E+00  0.181E+00  0.181E+00
 11.263  0.540E+00  0.180E+00  0.180E+00  0.180E+00
 11.273  0.538E+00  0.179E+00  0.179E+00  0.179E+00
 11.283  0.536E+00  0.179E+00  0.179E+00  0.179E+00
 11.293  0.533E+00  0.178E+00  0.178E+00  0.178E+00
 11.303  0.531E+00  0.177E+00  0.177E+00  0.177E+00
 11.313  0.527E+00  0.176E+00  0.176E+00  0.176E+00
 11.323  0.524E+00  0.175E+00  0.175E+00  0.175E+00
 11.333  0.520E+00  0.173E+00  0.173E+00  0.173E+00
 11.343  0.516E+00  0.172E+00  0.172E+00  0.172E+00
 11.353  0.512E+00  0.171E+00  0.171E+00  0.171E+00
 11.363  0.508E+00  0.169E+00  0.169E+00  0.169E+00
 11.373  0.503E+00  0.168E+00  0.168E+00  0.168E+00
 11.383  0.498E+00  0.166E+00  0.166E+00  0.166E+00
 11.393  0.493E+00  0.164E+00  0.164E+00  0.164E+00
 11.403  0.488E+00  0.163E+00  0.163E+00  0.163E+00
 11.413  0.482E+00  0.161E+00  0.161E+00  0.161E+00
 11.423  0.477E+00  0.159E+00  0.159E+00  0.159E+00
 11.433  0.471E+00  0.157E+00  0.157E+00  0.157E+00
 11.443  0.465E+00  0.155E+00  0.155E+00  0.155E+00
 11.453  0.459E+00  0.153E+00  0.153E+00  0.153E+00
 11.463  0.453E+00  0.151E+00  0.151E+00  0.151E+00
 11.473  0.447E+00  0.149E+00  0.149E+00  0.149E+00
 11.483  0.440E+00  0.147E+00  0.147E+00  0.147E+00
 11.493  0.434E+00  0.145E+00  0.145E+00  0.145E+00
 11.503  0.427E+00  0.142E+00  0.142E+00  0.142E+00
 11.513  0.420E+00  0.140E+00  0.140E+00  0.140E+00
 11.523  0.413E+00  0.138E+00  0.138E+00  0.138E+00
 11.533  0.406E+00  0.135E+00  0.135E+00  0.135E+00
 11.543  0.398E+00  0.133E+00  0.133E+00  0.133E+00
 11.553  0.391E+00  0.130E+00  0.130E+00  0.130E+00
 11.563  0.383E+00  0.128E+00  0.128E+00  0.128E+00
 11.573  0.376E+00  0.125E+00  0.125E+00  0.125E+00
 11.583  0.368E+00  0.123E+00  0.123E+00  0.123E+00
 11.593  0.360E+00  0.120E+00  0.120E+00  0.120E+00
 11.603  0.352E+00  0.117E+00  0.117E+00  0.117E+00
 11.613  0.344E+00  0.115E+00  0.115E+00  0.115E+00
 11.623  0.336E+00  0.112E+00  0.112E+00  0.112E+00
 11.633  0.328E+00  0.109E+00  0.109E+00  0.109E+00
 11.643  0.321E+00  0.107E+00  0.107E+00  0.107E+00
 11.653  0.313E+00  0.104E+00  0.104E+00  0.104E+00
 11.663  0.305E+00  0.102E+00  0.102E+00  0.102E+00
 11.673  0.298E+00  0.993E-01  0.993E-01  0.993E-01
 11.683  0.291E+00  0.970E-01  0.970E-01  0.970E-01
 11.693  0.284E+00  0.947E-01  0.947E-01  0.947E-01
 11.703  0.278E+00  0.925E-01  0.925E-01  0.925E-01
 11.713  0.272E+00  0.905E-01  0.905E-01  0.905E-01
 11.723  0.266E+00  0.887E-01  0.887E-01  0.887E-01
 11.733  0.261E+00  0.871E-01  0.871E-01  0.871E-01
 11.743  0.257E+00  0.857E-01  0.857E-01  0.857E-01
 11.753  0.254E+00  0.845E-01  0.845E-01  0.845E-01
 11.763  0.251E+00  0.836E-01  0.836E-01  0.836E-01
 11.773  0.249E+00  0.830E-01  0.830E-01  0.830E-01
 11.783  0.248E+00  0.827E-01  0.827E-01  0.827E-01
 11.793  0.248E+00  0.828E-01  0.828E-01  0.828E-01
 11.803  0.250E+00  0.833E-01  0.833E-01  0.833E-01
 11.813  0.252E+00  0.841E-01  0.841E-01  0.841E-01
 11.823  0.256E+00  0.854E-01  0.854E-01  0.854E-01
 11.833  0.262E+00  0.872E-01  0.872E-01  0.872E-01
 11.843  0.268E+00  0.894E-01  0.894E-01  0.894E-01
 11.853  0.276E+00  0.922E-01  0.922E-01  0.922E-01
 11.863  0.286E+00  0.954E-01  0.954E-01  0.954E-01
 11.873  0.298E+00  0.992E-01  0.992E-01  0.992E-01
 11.883  0.311E+00  0.104E+00  0.104E+00  0.104E+00
 11.893  0.325E+00  0.108E+00  0.108E+00  0.108E+00
 11.903  0.342E+00  0.114E+00  0.114E+00  0.114E+00
 11.913  0.360E+00  0.120E+00  0.120E+00  0.120E+00
 11.923  0.380E+00  0.127E+00  0.127E+00  0.127E+00
 11.933  0.401E+00  0.134E+00  0.134E+00  0.134E+00
 11.943  0.424E+00  0.141E+00  0.141E+00  0.141E+00
 11.953  0.449E+00  0.150E+00  0.150E+00  0.150E+00
 11.963  0.476E+00  0.159E+00  0.159E+00  0.159E+00
 11.973  0.503E+00  0.168E+00  0.168E+00  0.168E+00
 11.983  0.533E+00  0.178E+00  0.178E+00  0.178E+00
 11.993  0.563E+00  0.188E+00  0.188E+00  0.188E+00
 12.003  0.595E+00  0.198E+00  0.198E+00  0.198E+00
 12.013  0.628E+00  0.209E+00  0.209E+00  0.209E+00
 12.023  0.662E+00  0.221E+00  0.221E+00  0.221E+00
 12.033  0.697E+00  0.232E+00  0.232E+00  0.232E+00
 12.043  0.732E+00  0.244E+00  0.244E+00  0.244E+00
 12.053  0.768E+00  0.256E+00  0.256E+00  0.256E+00
 12.063  0.804E+00  0.268E+00  0.268E+00  0.268E+00
 12.073  0.840E+00  0.280E+00  0.280E+00  0.280E+00
 12.083  0.876E+00  0.292E+00  0.292E+00  0.292E+00
 12.093  0.912E+00  0.304E+00  0.304E+00  0.304E+00
 12.103  0.947E+00  0.316E+00  0.316E+00  0.316E+00
 12.113  0.981E+00  0.327E+00  0.327E+00  0.327E+00
 12.123  0.101E+01  0.338E+00  0.338E+00  0.338E+00
 12.133  0.105E+01  0.349E+00  0.349E+00  0.349E+00
 12.143  0.108E+01  0.359E+00  0.359E+00  0.359E+00
 12.153  0.111E+01  0.369E+00  0.369E+00  0.369E+00
 12.163  0.113E+01  0.378E+00  0.378E+00  0.378E+00
 12.173  0.116E+01  0.386E+00  0.386E+00  0.386E+00
 12.183  0.118E+01  0.394E+00  0.394E+00  0.394E+00
 12.193  0.120E+01  0.401E+00  0.401E+00  0.401E+00
 12.203  0.122E+01  0.407E+00  0.407E+00  0.407E+00
 12.213  0.124E+01  0.412E+00  0.412E+00  0.412E+00
 12.223  0.125E+01  0.417E+00  0.417E+00  0.417E+00
 12.233  0.126E+01  0.420E+00  0.420E+00  0.420E+00
 12.243  0.127E+01  0.423E+00  0.423E+00  0.423E+00
 12.253  0.127E+01  0.425E+00  0.425E+00  0.425E+00
 12.263  0.128E+01  0.425E+00  0.425E+00  0.425E+00
 12.273  0.127E+01  0.425E+00  0.425E+00  0.425E+00
 12.283  0.127E+01  0.424E+00  0.424E+00  0.424E+00
 12.293  0.127E+01  0.422E+00  0.422E+00  0.422E+00
 12.303  0.126E+01  0.419E+00  0.419E+00  0.419E+00
 12.313  0.124E+01  0.415E+00  0.415E+00  0.415E+00
 12.323  0.123E+01  0.410E+00  0.410E+00  0.410E+00
 12.333  0.121E+01  0.405E+00  0.405E+00  0.405E+00
 12.343  0.120E+01  0.398E+00  0.398E+00  0.398E+00
 12.353  0.117E+01  0.391E+00  0.391E+00  0.391E+00
 12.363  0.115E+01  0.384E+00  0.384E+00  0.384E+00
 12.373  0.113E+01  0.376E+00  0.376E+00  0.376E+00
 12.383  0.110E+01  0.367E+00  0.367E+00  0.367E+00
 12.393  0.107E+01  0.358E+00  0.358E+00  0.358E+00
 12.403  0.104E+01  0.348E+00  0.348E+00  0.348E+00
 12.413  0.101E+01  0.338E+00  0.338E+00  0.338E+00
 12.423  0.983E+00  0.328E+00  0.328E+00  0.328E+00
 12.433  0.951E+00  0.317E+00  0.317E+00  0.317E+00
 12.443  0.919E+00  0.306E+00  0.306E+00  0.306E+00
 12.453  0.887E+00  0.296E+00  0.296E+00  0.296E+00
 12.463  0.854E+00  0.285E+00  0.285E+00  0.285E+00
 12.473  0.821E+00  0.274E+00  0.274E+00  0.274E+00
 12.483  0.788E+00  0.263E+00  0.263E+00  0.263E+00
 12.493  0.755E+00  0.252E+00  0.252E+00  0.252E+00
 12.503  0.723E+00  0.241E+00  0.241E+00  0.241E+00
 12.513  0.691E+00  0.230E+00  0.230E+00  0.230E+00
 12.523  0.660E+00  0.220E+00  0.220E+00  0.220E+00
 12.533  0.629E+00  0.210E+00  0.210E+00  0.210E+00
 12.543  0.599E+00  0.200E+00  0.200E+00  0.200E+00
 12.553  0.570E+00  0.190E+00  0.190E+00  0.190E+00
 12.563  0.541E+00  0.180E+00  0.180E+00  0.180E+00
 12.573  0.513E+00  0.171E+00  0.171E+00  0.171E+00
 12.583  0.487E+00  0.162E+00  0.162E+00  0.162E+00
 12.593  0.461E+00  0.154E+00  0.154E+00  0.154E+00
 12.603  0.436E+00  0.145E+00  0.145E+00  0.145E+00
 12.613  0.412E+00  0.137E+00  0.137E+00  0.137E+00
 12.623  0.389E+00  0.130E+00  0.130E+00  0.130E+00
 12.633  0.367E+00  0.122E+00  0.122E+00  0.122E+00
 12.643  0.345E+00  0.115E+00  0.115E+00  0.115E+00
 12.653  0.325E+00  0.108E+00  0.108E+00  0.108E+00
 12.663  0.306E+00  0.102E+00  0.102E+00  0.102E+00
 12.673  0.287E+00  0.958E-01  0.958E-01  0.958E-01
 12.683  0.270E+00  0.899E-01  0.899E-01  0.899E-01
 12.693  0.253E+00  0.843E-01  0.843E-01  0.843E-01
 12.703  0.237E+00  0.790E-01  0.790E-01  0.790E-01
 12.713  0.222E+00  0.739E-01  0.739E-01  0.739E-01
 12.723  0.207E+00  0.691E-01  0.691E-01  0.691E-01
 12.733  0.194E+00  0.646E-01  0.646E-01  0.646E-01
 12.743  0.181E+00  0.603E-01  0.603E-01  0.603E-01
 12.753  0.168E+00  0.562E-01  0.562E-01  0.562E-01
 12.763  0.157E+00  0.523E-01  0.523E-01  0.523E-01
 12.773  0.146E+00  0.486E-01  0.486E-01  0.486E-01
 12.783  0.136E+00  0.452E-01  0.452E-01  0.452E-01
 12.793  0.126E+00  0.419E-01  0.419E-01  0.419E-01
 12.803  0.117E+00  0.389E-01  0.389E-01  0.389E-01
 12.813  0.108E+00  0.360E-01  0.360E-01  0.360E-01
 12.823  0.998E-01  0.333E-01  0.333E-01  0.333E-01
 12.833  0.922E-01  0.307E-01  0.307E-01  0.307E-01
 12.843  0.851E-01  0.284E-01  0.284E-01  0.284E-01
 12.853  0.785E-01  0.262E-01  0.262E-01  0.262E-01
 12.863  0.724E-01  0.241E-01  0.241E-01  0.241E-01
 12.873  0.667E-01  0.222E-01  0.222E-01  0.222E-01
 12.883  0.614E-01  0.205E-01  0.205E-01  0.205E-01
 12.893  0.565E-01  0.188E-01  0.188E-01  0.188E-01
 12.903  0.521E-01  0.174E-01  0.174E-01  0.174E-01
 12.913  0.481E-01  0.160E-01  0.160E-01  0.160E-01
 12.923  0.444E-01  0.148E-01  0.148E-01  0.148E-01
 12.933  0.412E-01  0.137E-01  0.137E-01  0.137E-01
 12.943  0.383E-01  0.128E-01  0.128E-01  0.128E-01
 12.953  0.357E-01  0.119E-01  0.119E-01  0.119E-01
 12.963  0.335E-01  0.112E-01  0.112E-01  0.112E-01
 12.973  0.317E-01  0.106E-01  0.106E-01  0.106E-01
 12.983  0.302E-01  0.101E-01  0.101E-01  0.101E-01
 12.993  0.290E-01  0.966E-02  0.966E-02  0.966E-02
 13.003  0.281E-01  0.937E-02  0.937E-02  0.937E-02
 13.013  0.276E-01  0.918E-02  0.919E-02  0.918E-02
 13.023  0.273E-01  0.910E-02  0.910E-02  0.910E-02
 13.033  0.273E-01  0.911E-02  0.912E-02  0.911E-02
 13.043  0.277E-01  0.923E-02  0.923E-02  0.923E-02
 13.053  0.283E-01  0.943E-02  0.944E-02  0.943E-02
 13.063  0.292E-01  0.974E-02  0.974E-02  0.974E-02
 13.073  0.304E-01  0.101E-01  0.101E-01  0.101E-01
 13.083  0.318E-01  0.106E-01  0.106E-01  0.106E-01
 13.093  0.336E-01  0.112E-01  0.112E-01  0.112E-01
 13.103  0.355E-01  0.118E-01  0.118E-01  0.118E-01
 13.113  0.377E-01  0.126E-01  0.126E-01  0.126E-01
 13.123  0.402E-01  0.134E-01  0.134E-01  0.134E-01
 13.133  0.429E-01  0.143E-01  0.143E-01  0.143E-01
 13.143  0.458E-01  0.153E-01  0.153E-01  0.153E-01
 13.153  0.489E-01  0.163E-01  0.163E-01  0.163E-01
 13.163  0.522E-01  0.174E-01  0.174E-01  0.174E-01
 13.173  0.557E-01  0.185E-01  0.186E-01  0.186E-01
 13.183  0.593E-01  0.198E-01  0.198E-01  0.198E-01
 13.193  0.631E-01  0.210E-01  0.210E-01  0.210E-01
 13.203  0.670E-01  0.223E-01  0.223E-01  0.223E-01
 13.213  0.710E-01  0.237E-01  0.237E-01  0.237E-01
 13.223  0.751E-01  0.250E-01  0.251E-01  0.250E-01
 13.233  0.793E-01  0.264E-01  0.264E-01  0.264E-01
 13.243  0.835E-01  0.278E-01  0.278E-01  0.278E-01
 13.253  0.877E-01  0.292E-01  0.293E-01  0.292E-01
 13.263  0.920E-01  0.306E-01  0.307E-01  0.306E-01
 13.273  0.961E-01  0.320E-01  0.321E-01  0.320E-01
 13.283  0.100E+00  0.334E-01  0.334E-01  0.334E-01
 13.293  0.104E+00  0.347E-01  0.348E-01  0.347E-01
 13.303  0.108E+00  0.360E-01  0.361E-01  0.360E-01
 13.313  0.112E+00  0.373E-01  0.373E-01  0.373E-01
 13.323  0.115E+00  0.385E-01  0.385E-01  0.385E-01
 13.333  0.119E+00  0.396E-01  0.396E-01  0.396E-01
 13.343  0.122E+00  0.407E-01  0.407E-01  0.407E-01
 13.353  0.125E+00  0.416E-01  0.417E-01  0.416E-01
 13.363  0.128E+00  0.425E-01  0.425E-01  0.425E-01
 13.373  0.130E+00  0.433E-01  0.433E-01  0.433E-01
 13.383  0.132E+00  0.440E-01  0.440E-01  0.440E-01
 13.393  0.134E+00  0.445E-01  0.446E-01  0.445E-01
 13.403  0.135E+00  0.450E-01  0.450E-01  0.450E-01
 13.413  0.136E+00  0.453E-01  0.453E-01  0.453E-01
 13.423  0.137E+00  0.455E-01  0.455E-01  0.455E-01
 13.433  0.137E+00  0.456E-01  0.456E-01  0.456E-01
 13.443  0.137E+00  0.456E-01  0.456E-01  0.456E-01
 13.453  0.136E+00  0.454E-01  0.455E-01  0.454E-01
 13.463  0.135E+00  0.451E-01  0.452E-01  0.452E-01
 13.473  0.134E+00  0.448E-01  0.448E-01  0.448E-01
 13.483  0.133E+00  0.442E-01  0.443E-01  0.443E-01
 13.493  0.131E+00  0.436E-01  0.437E-01  0.436E-01
 13.503  0.129E+00  0.429E-01  0.429E-01  0.429E-01
 13.513  0.126E+00  0.421E-01  0.421E-01  0.421E-01
 13.523  0.123E+00  0.411E-01  0.412E-01  0.411E-01
 13.533  0.120E+00  0.401E-01  0.402E-01  0.401E-01
 13.543  0.117E+00  0.390E-01  0.391E-01  0.390E-01
 13.553  0.114E+00  0.379E-01  0.379E-01  0.379E-01
 13.563  0.110E+00  0.367E-01  0.367E-01  0.367E-01
 13.573  0.106E+00  0.354E-01  0.354E-01  0.354E-01
 13.583  0.102E+00  0.340E-01  0.341E-01  0.341E-01
 13.593  0.981E-01  0.327E-01  0.327E-01  0.327E-01
 13.603  0.939E-01  0.313E-01  0.313E-01  0.313E-01
 13.613  0.897E-01  0.299E-01  0.299E-01  0.299E-01
 13.623  0.855E-01  0.285E-01  0.285E-01  0.285E-01
 13.633  0.812E-01  0.271E-01  0.271E-01  0.271E-01
 13.643  0.770E-01  0.256E-01  0.257E-01  0.256E-01
 13.653  0.728E-01  0.242E-01  0.243E-01  0.243E-01
 13.663  0.686E-01  0.229E-01  0.229E-01  0.229E-01
 13.673  0.646E-01  0.215E-01  0.215E-01  0.215E-01
 13.683  0.606E-01  0.202E-01  0.202E-01  0.202E-01
 13.693  0.568E-01  0.189E-01  0.189E-01  0.189E-01
 13.703  0.531E-01  0.177E-01  0.177E-01  0.177E-01
 13.713  0.495E-01  0.165E-01  0.165E-01  0.165E-01
 13.723  0.461E-01  0.154E-01  0.154E-01  0.154E-01
 13.733  0.429E-01  0.143E-01  0.143E-01  0.143E-01
 13.743  0.398E-01  0.133E-01  0.133E-01  0.133E-01
 13.753  0.369E-01  0.123E-01  0.123E-01  0.123E-01
 13.763  0.342E-01  0.114E-01  0.114E-01  0.114E-01
 13.773  0.317E-01  0.106E-01  0.106E-01  0.106E-01
 13.783  0.293E-01  0.978E-02  0.979E-02  0.978E-02
 13.793  0.272E-01  0.906E-02  0.906E-02  0.906E-02
 13.803  0.252E-01  0.840E-02  0.840E-02  0.840E-02
 13.813  0.234E-01  0.780E-02  0.780E-02  0.780E-02
 13.823  0.218E-01  0.725E-02  0.726E-02  0.725E-02
 13.833  0.203E-01  0.677E-02  0.677E-02  0.677E-02
 13.843  0.190E-01  0.633E-02  0.634E-02  0.634E-02
 13.853  0.179E-01  0.595E-02  0.596E-02  0.596E-02
 13.863  0.169E-01  0.562E-02  0.563E-02  0.563E-02
 13.873  0.160E-01  0.534E-02  0.534E-02  0.534E-02
 13.883  0.153E-01  0.510E-02  0.511E-02  0.510E-02
 13.893  0.147E-01  0.491E-02  0.491E-02  0.491E-02
 13.903  0.143E-01  0.475E-02  0.475E-02  0.475E-02
 13.913  0.139E-01  0.463E-02  0.463E-02  0.463E-02
 13.923  0.136E-01  0.454E-02  0.455E-02  0.454E-02
 13.933  0.135E-01  0.449E-02  0.449E-02  0.449E-02
 13.943  0.134E-01  0.446E-02  0.446E-02  0.446E-02
 13.953  0.134E-01  0.445E-02  0.446E-02  0.445E-02
 13.963  0.134E-01  0.447E-02  0.447E-02  0.447E-02
 13.973  0.135E-01  0.451E-02  0.451E-02  0.451E-02
 13.983  0.137E-01  0.456E-02  0.456E-02  0.456E-02
 13.993  0.139E-01  0.463E-02  0.463E-02  0.463E-02
 14.003  0.141E-01  0.470E-02  0.470E-02  0.470E-02
 14.013  0.144E-01  0.479E-02  0.479E-02  0.479E-02
 14.023  0.146E-01  0.488E-02  0.488E-02  0.488E-02
 14.033  0.149E-01  0.497E-02  0.497E-02  0.497E-02
 14.043  0.152E-01  0.507E-02  0.507E-02  0.507E-02
 14.053  0.155E-01  0.516E-02  0.516E-02  0.516E-02
 14.063  0.158E-01  0.525E-02  0.525E-02  0.525E-02
 14.073  0.160E-01  0.534E-02  0.534E-02  0.534E-02
 14.083  0.163E-01  0.542E-02  0.542E-02  0.542E-02
 14.093  0.165E-01  0.549E-02  0.549E-02  0.549E-02
 14.103  0.167E-01  0.556E-02  0.556E-02  0.556E-02
 14.113  0.168E-01  0.561E-02  0.561E-02  0.561E-02
 14.123  0.170E-01  0.566E-02  0.566E-02  0.566E-02
 14.133  0.171E-01  0.569E-02  0.569E-02  0.569E-02
 14.143  0.171E-01  0.571E-02  0.571E-02  0.571E-02
 14.153  0.171E-01  0.571E-02  0.571E-02  0.571E-02
 14.163  0.171E-01  0.570E-02  0.570E-02  0.570E-02
 14.173  0.170E-01  0.568E-02  0.568E-02  0.568E-02
 14.183  0.169E-01  0.564E-02  0.564E-02  0.564E-02
 14.193  0.168E-01  0.559E-02  0.559E-02  0.559E-02
 14.203  0.166E-01  0.552E-02  0.552E-02  0.552E-02
 14.213  0.163E-01  0.545E-02  0.545E-02  0.545E-02
 14.223  0.161E-01  0.535E-02  0.535E-02  0.535E-02
 14.233  0.158E-01  0.525E-02  0.525E-02  0.525E-02
 14.243  0.154E-01  0.514E-02  0.514E-02  0.514E-02
 14.253  0.150E-01  0.501E-02  0.501E-02  0.501E-02
 14.263  0.146E-01  0.487E-02  0.487E-02  0.487E-02
 14.273  0.142E-01  0.473E-02  0.473E-02  0.473E-02
 14.283  0.137E-01  0.458E-02  0.458E-02  0.458E-02
 14.293  0.133E-01  0.442E-02  0.442E-02  0.442E-02
 14.303  0.128E-01  0.425E-02  0.425E-02  0.425E-02
 14.313  0.122E-01  0.408E-02  0.408E-02  0.408E-02
 14.323  0.117E-01  0.391E-02  0.391E-02  0.391E-02
 14.333  0.112E-01  0.373E-02  0.373E-02  0.373E-02
 14.343  0.107E-01  0.355E-02  0.355E-02  0.355E-02
 14.353  0.101E-01  0.337E-02  0.337E-02  0.337E-02
 14.363  0.959E-02  0.320E-02  0.320E-02  0.320E-02
 14.373  0.906E-02  0.302E-02  0.302E-02  0.302E-02
 14.383  0.853E-02  0.284E-02  0.284E-02  0.284E-02
 14.393  0.802E-02  0.267E-02  0.267E-02  0.267E-02
 14.403  0.751E-02  0.250E-02  0.250E-02  0.250E-02
 14.413  0.702E-02  0.234E-02  0.234E-02  0.234E-02
 14.423  0.654E-02  0.218E-02  0.218E-02  0.218E-02
 14.433  0.608E-02  0.203E-02  0.203E-02  0.203E-02
 14.443  0.564E-02  0.188E-02  0.188E-02  0.188E-02
 14.453  0.521E-02  0.174E-02  0.174E-02  0.174E-02
 14.463  0.480E-02  0.160E-02  0.160E-02  0.160E-02
 14.473  0.442E-02  0.147E-02  0.147E-02  0.147E-02
 14.483  0.405E-02  0.135E-02  0.135E-02  0.135E-02
 14.493  0.370E-02  0.123E-02  0.123E-02  0.123E-02
 14.503  0.338E-02  0.113E-02  0.113E-02  0.113E-02
 14.513  0.307E-02  0.102E-02  0.102E-02  0.102E-02
 14.523  0.279E-02  0.929E-03  0.929E-03  0.929E-03
 14.533  0.252E-02  0.840E-03  0.840E-03  0.840E-03
 14.543  0.227E-02  0.758E-03  0.758E-03  0.758E-03
 14.553  0.205E-02  0.682E-03  0.682E-03  0.682E-03
 14.563  0.184E-02  0.612E-03  0.612E-03  0.612E-03
 14.573  0.164E-02  0.548E-03  0.548E-03  0.548E-03
 14.583  0.147E-02  0.489E-03  0.489E-03  0.489E-03
 14.593  0.131E-02  0.435E-03  0.435E-03  0.435E-03
 14.603  0.116E-02  0.386E-03  0.386E-03  0.386E-03
 14.613  0.103E-02  0.342E-03  0.342E-03  0.342E-03
 14.623  0.906E-03  0.302E-03  0.302E-03  0.302E-03
 14.633  0.798E-03  0.266E-03  0.266E-03  0.266E-03
 14.643  0.701E-03  0.234E-03  0.234E-03  0.234E-03
 14.653  0.614E-03  0.205E-03  0.205E-03  0.205E-03
 14.663  0.536E-03  0.179E-03  0.179E-03  0.179E-03
 14.673  0.467E-03  0.156E-03  0.156E-03  0.156E-03
 14.683  0.406E-03  0.135E-03  0.135E-03  0.135E-03
 14.693  0.351E-03  0.117E-03  0.117E-03  0.117E-03
 14.703  0.304E-03  0.101E-03  0.101E-03  0.101E-03
 14.713  0.262E-03  0.872E-04  0.872E-04  0.872E-04
 14.723  0.225E-03  0.749E-04  0.749E-04  0.749E-04
 14.733  0.193E-03  0.642E-04  0.642E-04  0.642E-04
 14.743  0.165E-03  0.549E-04  0.549E-04  0.549E-04
 14.753  0.140E-03  0.468E-04  0.468E-04  0.468E-04
 14.763  0.119E-03  0.398E-04  0.398E-04  0.398E-04
 14.773  0.101E-03  0.337E-04  0.337E-04  0.337E-04
 14.783  0.856E-04  0.285E-04  0.285E-04  0.285E-04
 14.793  0.722E-04  0.241E-04  0.241E-04  0.241E-04
 14.803  0.607E-04  0.202E-04  0.202E-04  0.202E-04
 14.813  0.509E-04  0.170E-04  0.170E-04  0.170E-04
 14.823  0.426E-04  0.142E-04  0.142E-04  0.142E-04
 14.833  0.355E-04  0.118E-04  0.118E-04  0.118E-04
 14.843  0.296E-04  0.985E-05  0.985E-05  0.985E-05
 14.853  0.245E-04  0.818E-05  0.818E-05  0.818E-05
 14.863  0.203E-04  0.677E-05  0.677E-05  0.677E-05
 14.873  0.168E-04  0.558E-05  0.558E-05  0.558E-05
 14.883  0.138E-04  0.460E-05  0.460E-05  0.460E-05
 14.893  0.113E-04  0.377E-05  0.377E-05  0.377E-05
 14.903  0.926E-05  0.309E-05  0.309E-05  0.309E-05
 14.913  0.756E-05  0.252E-05  0.252E-05  0.252E-05
 14.923  0.616E-05  0.205E-05  0.205E-05  0.205E-05
 14.933  0.500E-05  0.167E-05  0.167E-05  0.167E-05
 14.943  0.405E-05  0.135E-05  0.135E-05  0.135E-05
 14.953  0.327E-05  0.109E-05  0.109E-05  0.109E-05
 14.963  0.263E-05  0.878E-06  0.878E-06  0.878E-06
 14.973  0.212E-05  0.705E-06  0.705E-06  0.705E-06
 14.983  0.170E-05  0.565E-06  0.565E-06  0.565E-06
 14.993  0.135E-05  0.451E-06  0.452E-06  0.452E-06
 15.003  0.108E-05  0.360E-06  0.360E-06  0.360E-06
 15.013  0.858E-06  0.286E-06  0.286E-06  0.286E-06
 15.023  0.680E-06  0.227E-06  0.227E-06  0.227E-06
 15.033  0.537E-06  0.179E-06  0.179E-06  0.179E-06
 15.043  0.423E-06  0.141E-06  0.141E-06  0.141E-06
 15.053  0.333E-06  0.111E-06  0.111E-06  0.111E-06
 15.063  0.261E-06  0.870E-07  0.870E-07  0.870E-07
 15.073  0.204E-06  0.680E-07  0.680E-07  0.680E-07
 15.083  0.159E-06  0.530E-07  0.530E-07  0.530E-07
 15.093  0.124E-06  0.412E-07  0.412E-07  0.412E-07
 15.103  0.960E-07  0.320E-07  0.320E-07  0.320E-07
 15.113  0.742E-07  0.247E-07  0.247E-07  0.247E-07
 15.123  0.573E-07  0.191E-07  0.191E-07  0.191E-07
 15.133  0.441E-07  0.147E-07  0.147E-07  0.147E-07
 15.143  0.338E-07  0.113E-07  0.113E-07  0.113E-07
 15.153  0.259E-07  0.862E-08  0.862E-08  0.862E-08
 15.163  0.197E-07  0.658E-08  0.658E-08  0.658E-08
 15.173  0.150E-07  0.501E-08  0.501E-08  0.501E-08
 15.183  0.114E-07  0.380E-08  0.380E-08  0.380E-08
 15.193  0.863E-08  0.288E-08  0.288E-08  0.288E-08
 15.203  0.652E-08  0.217E-08  0.217E-08  0.217E-08
 15.213  0.491E-08  0.164E-08  0.164E-08  0.164E-08
 15.223  0.369E-08  0.123E-08  0.123E-08  0.123E-08
 15.233  0.277E-08  0.922E-09  0.922E-09  0.922E-09
 15.243  0.207E-08  0.690E-09  0.690E-09  0.690E-09
 15.253  0.155E-08  0.517E-09  0.517E-09  0.517E-09
 15.263  0.116E-08  0.387E-09  0.387E-09  0.387E-09
 15.273  0.876E-09  0.292E-09  0.292E-09  0.292E-09
 15.283  0.669E-09  0.223E-09  0.223E-09  0.223E-09
 15.293  0.524E-09  0.175E-09  0.175E-09  0.175E-09
 15.303  0.429E-09  0.143E-09  0.143E-09  0.143E-09
 15.313  0.375E-09  0.125E-09  0.125E-09  0.125E-09
 15.323  0.360E-09  0.120E-09  0.120E-09  0.120E-09
 15.333  0.382E-09  0.127E-09  0.127E-09  0.127E-09
 15.343  0.444E-09  0.148E-09  0.148E-09  0.148E-09
 15.353  0.552E-09  0.184E-09  0.184E-09  0.184E-09
 15.363  0.719E-09  0.240E-09  0.240E-09  0.240E-09
 15.373  0.959E-09  0.320E-09  0.320E-09  0.320E-09
 15.383  0.130E-08  0.432E-09  0.432E-09  0.432E-09
 15.393  0.176E-08  0.588E-09  0.588E-09  0.588E-09
 15.403  0.240E-08  0.801E-09  0.801E-09  0.801E-09
 15.413  0.327E-08  0.109E-08  0.109E-08  0.109E-08
 15.423  0.445E-08  0.148E-08  0.148E-08  0.148E-08
 15.433  0.604E-08  0.201E-08  0.201E-08  0.201E-08
 15.443  0.818E-08  0.273E-08  0.273E-08  0.273E-08
 15.453  0.110E-07  0.368E-08  0.368E-08  0.368E-08
 15.463  0.149E-07  0.496E-08  0.496E-08  0.496E-08
 15.473  0.200E-07  0.666E-08  0.666E-08  0.666E-08
 15.483  0.268E-07  0.893E-08  0.893E-08  0.893E-08
 15.493  0.358E-07  0.119E-07  0.119E-07  0.119E-07
 15.503  0.477E-07  0.159E-07  0.159E-07  0.159E-07
 15.513  0.634E-07  0.211E-07  0.211E-07  0.211E-07
 15.523  0.841E-07  0.280E-07  0.280E-07  0.280E-07
 15.533  0.111E-06  0.371E-07  0.371E-07  0.371E-07
 15.543  0.147E-06  0.489E-07  0.489E-07  0.489E-07
 15.553  0.193E-06  0.642E-07  0.642E-07  0.642E-07
 15.563  0.253E-06  0.842E-07  0.842E-07  0.842E-07
 15.573  0.331E-06  0.110E-06  0.110E-06  0.110E-06
 15.583  0.431E-06  0.144E-06  0.144E-06  0.144E-06
 15.593  0.561E-06  0.187E-06  0.187E-06  0.187E-06
 15.603  0.728E-06  0.243E-06  0.243E-06  0.243E-06
 15.613  0.941E-06  0.314E-06  0.314E-06  0.314E-06
 15.623  0.121E-05  0.405E-06  0.405E-06  0.405E-06
 15.633  0.156E-05  0.521E-06  0.521E-06  0.521E-06
 15.643  0.201E-05  0.669E-06  0.669E-06  0.669E-06
 15.653  0.257E-05  0.856E-06  0.856E-06  0.856E-06
 15.663  0.328E-05  0.109E-05  0.109E-05  0.109E-05
 15.673  0.417E-05  0.139E-05  0.139E-05  0.139E-05
 15.683  0.530E-05  0.177E-05  0.177E-05  0.177E-05
 15.693  0.671E-05  0.224E-05  0.224E-05  0.224E-05
 15.703  0.847E-05  0.282E-05  0.282E-05  0.282E-05
 15.713  0.107E-04  0.356E-05  0.356E-05  0.356E-05
 15.723  0.134E-04  0.447E-05  0.447E-05  0.447E-05
 15.733  0.168E-04  0.559E-05  0.559E-05  0.559E-05
 15.743  0.210E-04  0.699E-05  0.699E-05  0.699E-05
 15.753  0.261E-04  0.870E-05  0.870E-05  0.870E-05
 15.763  0.324E-04  0.108E-04  0.108E-04  0.108E-04
 15.773  0.402E-04  0.134E-04  0.134E-04  0.134E-04
 15.783  0.497E-04  0.166E-04  0.166E-04  0.166E-04
 15.793  0.612E-04  0.204E-04  0.204E-04  0.204E-04
 15.803  0.752E-04  0.251E-04  0.251E-04  0.251E-04
 15.813  0.922E-04  0.307E-04  0.307E-04  0.307E-04
 15.823  0.113E-03  0.376E-04  0.376E-04  0.376E-04
 15.833  0.137E-03  0.458E-04  0.458E-04  0.458E-04
 15.843  0.167E-03  0.557E-04  0.557E-04  0.557E-04
 15.853  0.203E-03  0.676E-04  0.676E-04  0.676E-04
 15.863  0.245E-03  0.817E-04  0.817E-04  0.817E-04
 15.873  0.296E-03  0.985E-04  0.985E-04  0.985E-04
 15.883  0.356E-03  0.119E-03  0.119E-03  0.119E-03
 15.893  0.427E-03  0.142E-03  0.142E-03  0.142E-03
 15.903  0.510E-03  0.170E-03  0.170E-03  0.170E-03
 15.913  0.609E-03  0.203E-03  0.203E-03  0.203E-03
 15.923  0.724E-03  0.241E-03  0.241E-03  0.241E-03
 15.933  0.860E-03  0.287E-03  0.287E-03  0.287E-03
 15.943  0.102E-02  0.339E-03  0.339E-03  0.339E-03
 15.953  0.120E-02  0.400E-03  0.400E-03  0.400E-03
 15.963  0.141E-02  0.471E-03  0.471E-03  0.471E-03
 15.973  0.166E-02  0.553E-03  0.553E-03  0.553E-03
 15.983  0.194E-02  0.648E-03  0.648E-03  0.648E-03
 15.993  0.227E-02  0.756E-03  0.756E-03  0.756E-03
 16.003  0.264E-02  0.881E-03  0.881E-03  0.881E-03
 16.013  0.307E-02  0.102E-02  0.102E-02  0.102E-02
 16.023  0.355E-02  0.118E-02  0.118E-02  0.118E-02
 16.033  0.410E-02  0.137E-02  0.137E-02  0.137E-02
 16.043  0.473E-02  0.158E-02  0.158E-02  0.158E-02
 16.053  0.543E-02  0.181E-02  0.181E-02  0.181E-02
 16.063  0.622E-02  0.207E-02  0.207E-02  0.207E-02
 16.073  0.711E-02  0.237E-02  0.237E-02  0.237E-02
 16.083  0.810E-02  0.270E-02  0.270E-02  0.270E-02
 16.093  0.921E-02  0.307E-02  0.307E-02  0.307E-02
 16.103  0.104E-01  0.348E-02  0.348E-02  0.348E-02
 16.113  0.118E-01  0.393E-02  0.393E-02  0.393E-02
 16.123  0.133E-01  0.443E-02  0.443E-02  0.443E-02
 16.133  0.150E-01  0.498E-02  0.498E-02  0.498E-02
 16.143  0.168E-01  0.559E-02  0.559E-02  0.559E-02
 16.153  0.187E-01  0.625E-02  0.625E-02  0.625E-02
 16.163  0.209E-01  0.697E-02  0.697E-02  0.697E-02
 16.173  0.233E-01  0.775E-02  0.775E-02  0.775E-02
 16.183  0.258E-01  0.860E-02  0.860E-02  0.860E-02
 16.193  0.285E-01  0.951E-02  0.951E-02  0.951E-02
 16.203  0.315E-01  0.105E-01  0.105E-01  0.105E-01
 16.213  0.346E-01  0.115E-01  0.115E-01  0.115E-01
 16.223  0.380E-01  0.127E-01  0.127E-01  0.127E-01
 16.233  0.416E-01  0.139E-01  0.139E-01  0.139E-01
 16.243  0.454E-01  0.151E-01  0.151E-01  0.151E-01
 16.253  0.494E-01  0.165E-01  0.165E-01  0.165E-01
 16.263  0.536E-01  0.179E-01  0.179E-01  0.179E-01
 16.273  0.581E-01  0.194E-01  0.194E-01  0.194E-01
 16.283  0.627E-01  0.209E-01  0.209E-01  0.209E-01
 16.293  0.675E-01  0.225E-01  0.225E-01  0.225E-01
 16.303  0.725E-01  0.242E-01  0.242E-01  0.242E-01
 16.313  0.776E-01  0.259E-01  0.259E-01  0.259E-01
 16.323  0.829E-01  0.276E-01  0.276E-01  0.276E-01
 16.333  0.883E-01  0.294E-01  0.294E-01  0.294E-01
 16.343  0.938E-01  0.313E-01  0.313E-01  0.313E-01
 16.353  0.994E-01  0.331E-01  0.331E-01  0.331E-01
 16.363  0.105E+00  0.350E-01  0.350E-01  0.350E-01
 16.373  0.111E+00  0.369E-01  0.369E-01  0.369E-01
 16.383  0.116E+00  0.387E-01  0.387E-01  0.387E-01
 16.393  0.122E+00  0.406E-01  0.406E-01  0.406E-01
 16.403  0.127E+00  0.424E-01  0.424E-01  0.424E-01
 16.413  0.133E+00  0.442E-01  0.442E-01  0.442E-01
 16.423  0.138E+00  0.460E-01  0.460E-01  0.460E-01
 16.433  0.143E+00  0.477E-01  0.477E-01  0.477E-01
 16.443  0.148E+00  0.493E-01  0.493E-01  0.493E-01
 16.453  0.153E+00  0.508E-01  0.508E-01  0.508E-01
 16.463  0.157E+00  0.523E-01  0.523E-01  0.523E-01
 16.473  0.161E+00  0.536E-01  0.536E-01  0.536E-01
 16.483  0.165E+00  0.549E-01  0.549E-01  0.549E-01
 16.493  0.168E+00  0.560E-01  0.560E-01  0.560E-01
 16.503  0.171E+00  0.569E-01  0.569E-01  0.569E-01
 16.513  0.173E+00  0.578E-01  0.578E-01  0.578E-01
 16.523  0.175E+00  0.584E-01  0.584E-01  0.584E-01
 16.533  0.177E+00  0.590E-01  0.590E-01  0.590E-01
 16.543  0.178E+00  0.594E-01  0.594E-01  0.594E-01
 16.553  0.179E+00  0.596E-01  0.596E-01  0.596E-01
 16.563  0.179E+00  0.596E-01  0.596E-01  0.596E-01
 16.573  0.179E+00  0.595E-01  0.595E-01  0.595E-01
 16.583  0.178E+00  0.593E-01  0.593E-01  0.593E-01
 16.593  0.177E+00  0.589E-01  0.589E-01  0.589E-01
 16.603  0.175E+00  0.583E-01  0.583E-01  0.583E-01
 16.613  0.173E+00  0.576E-01  0.576E-01  0.576E-01
 16.623  0.170E+00  0.567E-01  0.567E-01  0.567E-01
 16.633  0.167E+00  0.557E-01  0.557E-01  0.557E-01
 16.643  0.164E+00  0.545E-01  0.545E-01  0.545E-01
 16.653  0.160E+00  0.533E-01  0.533E-01  0.533E-01
 16.663  0.156E+00  0.519E-01  0.519E-01  0.519E-01
 16.673  0.151E+00  0.505E-01  0.505E-01  0.505E-01
 16.683  0.147E+00  0.489E-01  0.489E-01  0.489E-01
 16.693  0.142E+00  0.473E-01  0.473E-01  0.473E-01
 16.703  0.137E+00  0.455E-01  0.455E-01  0.455E-01
 16.713  0.131E+00  0.438E-01  0.438E-01  0.438E-01
 16.723  0.126E+00  0.420E-01  0.420E-01  0.420E-01
 16.733  0.120E+00  0.401E-01  0.401E-01  0.401E-01
 16.743  0.115E+00  0.383E-01  0.383E-01  0.383E-01
 16.753  0.109E+00  0.364E-01  0.364E-01  0.364E-01
 16.763  0.104E+00  0.345E-01  0.345E-01  0.345E-01
 16.773  0.979E-01  0.326E-01  0.326E-01  0.326E-01
 16.783  0.924E-01  0.308E-01  0.308E-01  0.308E-01
 16.793  0.869E-01  0.290E-01  0.290E-01  0.290E-01
 16.803  0.815E-01  0.272E-01  0.272E-01  0.272E-01
 16.813  0.763E-01  0.254E-01  0.254E-01  0.254E-01
 16.823  0.712E-01  0.237E-01  0.237E-01  0.237E-01
 16.833  0.662E-01  0.221E-01  0.221E-01  0.221E-01
 16.843  0.615E-01  0.205E-01  0.205E-01  0.205E-01
 16.853  0.569E-01  0.190E-01  0.190E-01  0.190E-01
 16.863  0.525E-01  0.175E-01  0.175E-01  0.175E-01
 16.873  0.483E-01  0.161E-01  0.161E-01  0.161E-01
 16.883  0.444E-01  0.148E-01  0.148E-01  0.148E-01
 16.893  0.406E-01  0.135E-01  0.135E-01  0.135E-01
 16.903  0.371E-01  0.124E-01  0.124E-01  0.124E-01
 16.913  0.338E-01  0.113E-01  0.113E-01  0.113E-01

