# E (eV)  dos(E)    pdos(E)
   5.903  0.167E+00  0.167E+00
   6.003  0.123E+00  0.123E+00
   6.103  0.723E-01  0.722E-01
   6.203  0.350E-01  0.349E-01
   6.303  0.196E-01  0.196E-01
   6.403  0.273E-01  0.272E-01
   6.503  0.581E-01  0.580E-01
   6.603  0.109E+00  0.109E+00
   6.703  0.168E+00  0.168E+00
   6.803  0.217E+00  0.216E+00
   6.903  0.245E+00  0.244E+00
   7.003  0.255E+00  0.254E+00
   7.103  0.258E+00  0.258E+00
   7.203  0.264E+00  0.264E+00
   7.303  0.271E+00  0.270E+00
   7.403  0.265E+00  0.265E+00
   7.503  0.249E+00  0.248E+00
   7.603  0.247E+00  0.247E+00
   7.703  0.292E+00  0.291E+00
   7.803  0.386E+00  0.385E+00
   7.903  0.498E+00  0.498E+00
   8.003  0.604E+00  0.603E+00
