# E (eV)   ldos(E)   pdos(E)    pdos(E)    pdos(E)
  -5.833  0.000E+00  0.000E+00  0.000E+00  0.000E+00
  -5.813  0.149E-03  0.496E-04  0.496E-04  0.496E-04
  -5.793  0.649E-03  0.216E-03  0.216E-03  0.216E-03
  -5.773  0.119E-02  0.397E-03  0.397E-03  0.397E-03
  -5.753  0.194E-02  0.647E-03  0.647E-03  0.647E-03
  -5.733  0.282E-02  0.940E-03  0.940E-03  0.940E-03
  -5.713  0.347E-02  0.116E-02  0.116E-02  0.116E-02
  -5.693  0.428E-02  0.143E-02  0.143E-02  0.143E-02
  -5.673  0.520E-02  0.173E-02  0.173E-02  0.173E-02
  -5.653  0.622E-02  0.207E-02  0.207E-02  0.207E-02
  -5.633  0.733E-02  0.244E-02  0.244E-02  0.244E-02
  -5.613  0.819E-02  0.273E-02  0.273E-02  0.273E-02
  -5.593  0.913E-02  0.304E-02  0.304E-02  0.304E-02
  -5.573  0.101E-01  0.335E-02  0.335E-02  0.335E-02
  -5.553  0.110E-01  0.368E-02  0.368E-02  0.368E-02
  -5.533  0.121E-01  0.404E-02  0.404E-02  0.404E-02
  -5.513  0.133E-01  0.442E-02  0.442E-02  0.442E-02
  -5.493  0.144E-01  0.481E-02  0.481E-02  0.481E-02
  -5.473  0.155E-01  0.518E-02  0.518E-02  0.518E-02
  -5.453  0.164E-01  0.548E-02  0.548E-02  0.548E-02
  -5.433  0.174E-01  0.581E-02  0.581E-02  0.581E-02
  -5.413  0.185E-01  0.616E-02  0.616E-02  0.616E-02
  -5.393  0.195E-01  0.650E-02  0.650E-02  0.650E-02
  -5.373  0.206E-01  0.685E-02  0.685E-02  0.685E-02
  -5.353  0.217E-01  0.722E-02  0.722E-02  0.722E-02
  -5.333  0.228E-01  0.760E-02  0.760E-02  0.760E-02
  -5.313  0.240E-01  0.799E-02  0.799E-02  0.799E-02
  -5.293  0.252E-01  0.839E-02  0.839E-02  0.839E-02
  -5.273  0.261E-01  0.871E-02  0.871E-02  0.871E-02
  -5.253  0.271E-01  0.904E-02  0.904E-02  0.904E-02
  -5.233  0.281E-01  0.936E-02  0.936E-02  0.936E-02
  -5.213  0.291E-01  0.969E-02  0.969E-02  0.969E-02
  -5.193  0.301E-01  0.100E-01  0.100E-01  0.100E-01
  -5.173  0.312E-01  0.104E-01  0.104E-01  0.104E-01
  -5.153  0.322E-01  0.107E-01  0.107E-01  0.107E-01
  -5.133  0.333E-01  0.111E-01  0.111E-01  0.111E-01
  -5.113  0.344E-01  0.115E-01  0.115E-01  0.115E-01
  -5.093  0.355E-01  0.118E-01  0.118E-01  0.118E-01
  -5.073  0.367E-01  0.122E-01  0.122E-01  0.122E-01
  -5.053  0.377E-01  0.126E-01  0.126E-01  0.126E-01
  -5.033  0.386E-01  0.129E-01  0.129E-01  0.129E-01
  -5.013  0.396E-01  0.132E-01  0.132E-01  0.132E-01
  -4.993  0.406E-01  0.135E-01  0.135E-01  0.135E-01
  -4.973  0.415E-01  0.138E-01  0.138E-01  0.138E-01
  -4.953  0.425E-01  0.142E-01  0.142E-01  0.142E-01
  -4.933  0.435E-01  0.145E-01  0.145E-01  0.145E-01
  -4.913  0.445E-01  0.148E-01  0.148E-01  0.148E-01
  -4.893  0.456E-01  0.152E-01  0.152E-01  0.152E-01
  -4.873  0.466E-01  0.155E-01  0.155E-01  0.155E-01
  -4.853  0.476E-01  0.159E-01  0.159E-01  0.159E-01
  -4.833  0.487E-01  0.162E-01  0.162E-01  0.162E-01
  -4.813  0.498E-01  0.166E-01  0.166E-01  0.166E-01
  -4.793  0.508E-01  0.169E-01  0.169E-01  0.169E-01
  -4.773  0.517E-01  0.172E-01  0.172E-01  0.172E-01
  -4.753  0.526E-01  0.175E-01  0.175E-01  0.175E-01
  -4.733  0.535E-01  0.178E-01  0.178E-01  0.178E-01
  -4.713  0.545E-01  0.182E-01  0.182E-01  0.182E-01
  -4.693  0.555E-01  0.185E-01  0.185E-01  0.185E-01
  -4.673  0.564E-01  0.188E-01  0.188E-01  0.188E-01
  -4.653  0.574E-01  0.191E-01  0.191E-01  0.191E-01
  -4.633  0.583E-01  0.194E-01  0.194E-01  0.194E-01
  -4.613  0.593E-01  0.198E-01  0.198E-01  0.198E-01
  -4.593  0.603E-01  0.201E-01  0.201E-01  0.201E-01
  -4.573  0.613E-01  0.204E-01  0.204E-01  0.204E-01
  -4.553  0.623E-01  0.208E-01  0.208E-01  0.208E-01
  -4.533  0.633E-01  0.211E-01  0.211E-01  0.211E-01
  -4.513  0.644E-01  0.215E-01  0.215E-01  0.215E-01
  -4.493  0.653E-01  0.218E-01  0.218E-01  0.218E-01
  -4.473  0.662E-01  0.221E-01  0.221E-01  0.221E-01
  -4.453  0.672E-01  0.224E-01  0.224E-01  0.224E-01
  -4.433  0.681E-01  0.227E-01  0.227E-01  0.227E-01
  -4.413  0.690E-01  0.230E-01  0.230E-01  0.230E-01
  -4.393  0.700E-01  0.233E-01  0.233E-01  0.233E-01
  -4.373  0.709E-01  0.236E-01  0.236E-01  0.236E-01
  -4.353  0.719E-01  0.240E-01  0.240E-01  0.240E-01
  -4.333  0.729E-01  0.243E-01  0.243E-01  0.243E-01
  -4.313  0.739E-01  0.246E-01  0.246E-01  0.246E-01
  -4.293  0.748E-01  0.249E-01  0.249E-01  0.249E-01
  -4.273  0.758E-01  0.253E-01  0.253E-01  0.253E-01
  -4.253  0.768E-01  0.256E-01  0.256E-01  0.256E-01
  -4.233  0.779E-01  0.260E-01  0.260E-01  0.260E-01
  -4.213  0.789E-01  0.263E-01  0.263E-01  0.263E-01
  -4.193  0.799E-01  0.266E-01  0.266E-01  0.266E-01
  -4.173  0.810E-01  0.270E-01  0.270E-01  0.270E-01
  -4.153  0.820E-01  0.273E-01  0.273E-01  0.273E-01
  -4.133  0.829E-01  0.276E-01  0.276E-01  0.276E-01
  -4.113  0.839E-01  0.280E-01  0.280E-01  0.280E-01
  -4.093  0.850E-01  0.283E-01  0.283E-01  0.283E-01
  -4.073  0.860E-01  0.287E-01  0.287E-01  0.287E-01
  -4.053  0.871E-01  0.290E-01  0.290E-01  0.290E-01
  -4.033  0.881E-01  0.294E-01  0.294E-01  0.294E-01
  -4.013  0.892E-01  0.297E-01  0.297E-01  0.297E-01
  -3.993  0.904E-01  0.301E-01  0.301E-01  0.301E-01
  -3.973  0.915E-01  0.305E-01  0.305E-01  0.305E-01
  -3.953  0.927E-01  0.309E-01  0.309E-01  0.309E-01
  -3.933  0.938E-01  0.313E-01  0.313E-01  0.313E-01
  -3.913  0.950E-01  0.317E-01  0.317E-01  0.317E-01
  -3.893  0.962E-01  0.321E-01  0.321E-01  0.321E-01
  -3.873  0.975E-01  0.325E-01  0.325E-01  0.325E-01
  -3.853  0.988E-01  0.329E-01  0.329E-01  0.329E-01
  -3.833  0.100E+00  0.334E-01  0.334E-01  0.334E-01
  -3.813  0.102E+00  0.338E-01  0.338E-01  0.338E-01
  -3.793  0.103E+00  0.343E-01  0.343E-01  0.343E-01
  -3.773  0.104E+00  0.348E-01  0.348E-01  0.348E-01
  -3.753  0.106E+00  0.353E-01  0.353E-01  0.353E-01
  -3.733  0.107E+00  0.358E-01  0.358E-01  0.358E-01
  -3.713  0.109E+00  0.364E-01  0.364E-01  0.364E-01
  -3.693  0.111E+00  0.370E-01  0.370E-01  0.370E-01
  -3.673  0.113E+00  0.377E-01  0.377E-01  0.377E-01
  -3.653  0.115E+00  0.385E-01  0.385E-01  0.385E-01
  -3.633  0.118E+00  0.393E-01  0.393E-01  0.393E-01
  -3.613  0.121E+00  0.403E-01  0.403E-01  0.403E-01
  -3.593  0.124E+00  0.413E-01  0.413E-01  0.413E-01
  -3.573  0.130E+00  0.434E-01  0.434E-01  0.434E-01
  -3.553  0.143E+00  0.478E-01  0.478E-01  0.478E-01
  -3.533  0.135E+00  0.451E-01  0.451E-01  0.451E-01
  -3.513  0.136E+00  0.452E-01  0.452E-01  0.452E-01
  -3.493  0.136E+00  0.454E-01  0.454E-01  0.454E-01
  -3.473  0.134E+00  0.447E-01  0.447E-01  0.447E-01
  -3.453  0.133E+00  0.442E-01  0.442E-01  0.442E-01
  -3.433  0.135E+00  0.451E-01  0.451E-01  0.451E-01
  -3.413  0.137E+00  0.457E-01  0.457E-01  0.457E-01
  -3.393  0.136E+00  0.453E-01  0.453E-01  0.453E-01
  -3.373  0.134E+00  0.446E-01  0.446E-01  0.446E-01
  -3.353  0.133E+00  0.443E-01  0.443E-01  0.443E-01
  -3.333  0.132E+00  0.441E-01  0.441E-01  0.441E-01
  -3.313  0.132E+00  0.440E-01  0.440E-01  0.440E-01
  -3.293  0.132E+00  0.439E-01  0.439E-01  0.439E-01
  -3.273  0.131E+00  0.438E-01  0.438E-01  0.438E-01
  -3.253  0.131E+00  0.436E-01  0.436E-01  0.436E-01
  -3.233  0.130E+00  0.433E-01  0.433E-01  0.433E-01
  -3.213  0.128E+00  0.427E-01  0.427E-01  0.427E-01
  -3.193  0.127E+00  0.425E-01  0.425E-01  0.425E-01
  -3.173  0.127E+00  0.423E-01  0.423E-01  0.423E-01
  -3.153  0.127E+00  0.422E-01  0.422E-01  0.422E-01
  -3.133  0.126E+00  0.421E-01  0.421E-01  0.421E-01
  -3.113  0.126E+00  0.421E-01  0.421E-01  0.421E-01
  -3.093  0.126E+00  0.420E-01  0.420E-01  0.420E-01
  -3.073  0.125E+00  0.418E-01  0.418E-01  0.418E-01
  -3.053  0.124E+00  0.414E-01  0.414E-01  0.414E-01
  -3.033  0.122E+00  0.408E-01  0.408E-01  0.408E-01
  -3.013  0.121E+00  0.405E-01  0.405E-01  0.405E-01
  -2.993  0.121E+00  0.402E-01  0.402E-01  0.402E-01
  -2.973  0.120E+00  0.400E-01  0.400E-01  0.400E-01
  -2.953  0.119E+00  0.398E-01  0.398E-01  0.398E-01
  -2.933  0.119E+00  0.396E-01  0.396E-01  0.396E-01
  -2.913  0.118E+00  0.394E-01  0.394E-01  0.394E-01
  -2.893  0.117E+00  0.391E-01  0.391E-01  0.391E-01
  -2.873  0.116E+00  0.388E-01  0.388E-01  0.388E-01
  -2.853  0.116E+00  0.385E-01  0.385E-01  0.385E-01
  -2.833  0.115E+00  0.383E-01  0.383E-01  0.383E-01
  -2.813  0.114E+00  0.379E-01  0.379E-01  0.379E-01
  -2.793  0.112E+00  0.374E-01  0.374E-01  0.374E-01
  -2.773  0.111E+00  0.371E-01  0.371E-01  0.371E-01
  -2.753  0.110E+00  0.368E-01  0.368E-01  0.368E-01
  -2.733  0.110E+00  0.365E-01  0.365E-01  0.365E-01
  -2.713  0.109E+00  0.362E-01  0.362E-01  0.362E-01
  -2.693  0.108E+00  0.360E-01  0.360E-01  0.360E-01
  -2.673  0.107E+00  0.357E-01  0.357E-01  0.357E-01
  -2.653  0.106E+00  0.354E-01  0.354E-01  0.354E-01
  -2.633  0.105E+00  0.351E-01  0.351E-01  0.351E-01
  -2.613  0.104E+00  0.347E-01  0.347E-01  0.347E-01
  -2.593  0.103E+00  0.344E-01  0.344E-01  0.344E-01
  -2.573  0.102E+00  0.340E-01  0.340E-01  0.340E-01
  -2.553  0.101E+00  0.335E-01  0.335E-01  0.335E-01
  -2.533  0.992E-01  0.331E-01  0.331E-01  0.331E-01
  -2.513  0.981E-01  0.327E-01  0.327E-01  0.327E-01
  -2.493  0.971E-01  0.324E-01  0.324E-01  0.324E-01
  -2.473  0.961E-01  0.320E-01  0.320E-01  0.320E-01
  -2.453  0.950E-01  0.317E-01  0.317E-01  0.317E-01
  -2.433  0.936E-01  0.312E-01  0.312E-01  0.312E-01
  -2.413  0.927E-01  0.309E-01  0.309E-01  0.309E-01
  -2.393  0.917E-01  0.306E-01  0.306E-01  0.306E-01
  -2.373  0.906E-01  0.302E-01  0.302E-01  0.302E-01
  -2.353  0.895E-01  0.298E-01  0.298E-01  0.298E-01
  -2.333  0.884E-01  0.295E-01  0.295E-01  0.295E-01
  -2.313  0.872E-01  0.291E-01  0.291E-01  0.291E-01
  -2.293  0.860E-01  0.287E-01  0.287E-01  0.287E-01
  -2.273  0.847E-01  0.282E-01  0.282E-01  0.282E-01
  -2.253  0.832E-01  0.277E-01  0.277E-01  0.277E-01
  -2.233  0.819E-01  0.273E-01  0.273E-01  0.273E-01
  -2.213  0.807E-01  0.269E-01  0.269E-01  0.269E-01
  -2.193  0.795E-01  0.265E-01  0.265E-01  0.265E-01
  -2.173  0.785E-01  0.262E-01  0.262E-01  0.262E-01
  -2.153  0.764E-01  0.255E-01  0.255E-01  0.255E-01
  -2.133  0.764E-01  0.255E-01  0.255E-01  0.255E-01
  -2.113  0.777E-01  0.259E-01  0.259E-01  0.259E-01
  -2.093  0.752E-01  0.251E-01  0.251E-01  0.251E-01
  -2.073  0.744E-01  0.248E-01  0.248E-01  0.248E-01
  -2.053  0.732E-01  0.244E-01  0.244E-01  0.244E-01
  -2.033  0.724E-01  0.241E-01  0.241E-01  0.241E-01
  -2.013  0.719E-01  0.240E-01  0.240E-01  0.240E-01
  -1.993  0.705E-01  0.235E-01  0.235E-01  0.235E-01
  -1.973  0.763E-01  0.254E-01  0.254E-01  0.254E-01
  -1.953  0.679E-01  0.226E-01  0.226E-01  0.226E-01
  -1.933  0.597E-01  0.199E-01  0.199E-01  0.199E-01
  -1.913  0.536E-01  0.179E-01  0.179E-01  0.179E-01
  -1.893  0.479E-01  0.160E-01  0.160E-01  0.160E-01
  -1.873  0.424E-01  0.141E-01  0.141E-01  0.141E-01
  -1.853  0.372E-01  0.124E-01  0.124E-01  0.124E-01
  -1.833  0.321E-01  0.107E-01  0.107E-01  0.107E-01
  -1.813  0.272E-01  0.907E-02  0.907E-02  0.907E-02
  -1.793  0.224E-01  0.747E-02  0.747E-02  0.747E-02
  -1.773  0.178E-01  0.592E-02  0.592E-02  0.592E-02
  -1.753  0.136E-01  0.454E-02  0.454E-02  0.454E-02
  -1.733  0.105E-01  0.350E-02  0.350E-02  0.350E-02
  -1.713  0.799E-02  0.266E-02  0.266E-02  0.266E-02
  -1.693  0.608E-02  0.203E-02  0.203E-02  0.203E-02
  -1.673  0.478E-02  0.159E-02  0.159E-02  0.159E-02
  -1.653  0.419E-02  0.140E-02  0.139E-02  0.140E-02
  -1.633  0.434E-02  0.145E-02  0.145E-02  0.145E-02
  -1.613  0.548E-02  0.183E-02  0.183E-02  0.183E-02
  -1.593  0.774E-02  0.258E-02  0.258E-02  0.258E-02
  -1.573  0.105E-01  0.350E-02  0.350E-02  0.350E-02
  -1.553  0.138E-01  0.459E-02  0.459E-02  0.459E-02
  -1.533  0.174E-01  0.581E-02  0.581E-02  0.581E-02
  -1.513  0.214E-01  0.714E-02  0.714E-02  0.714E-02
  -1.493  0.258E-01  0.859E-02  0.858E-02  0.859E-02
  -1.473  0.304E-01  0.101E-01  0.101E-01  0.101E-01
  -1.453  0.354E-01  0.118E-01  0.118E-01  0.118E-01
  -1.433  0.407E-01  0.136E-01  0.136E-01  0.136E-01
  -1.413  0.459E-01  0.153E-01  0.153E-01  0.153E-01
  -1.393  0.508E-01  0.169E-01  0.169E-01  0.169E-01
  -1.373  0.548E-01  0.183E-01  0.183E-01  0.183E-01
  -1.353  0.583E-01  0.194E-01  0.194E-01  0.194E-01
  -1.333  0.618E-01  0.206E-01  0.206E-01  0.206E-01
  -1.313  0.678E-01  0.226E-01  0.226E-01  0.226E-01
  -1.293  0.707E-01  0.236E-01  0.236E-01  0.236E-01
  -1.273  0.755E-01  0.252E-01  0.252E-01  0.252E-01
  -1.253  0.794E-01  0.265E-01  0.265E-01  0.265E-01
  -1.233  0.807E-01  0.269E-01  0.269E-01  0.269E-01
  -1.213  0.826E-01  0.275E-01  0.275E-01  0.275E-01
  -1.193  0.851E-01  0.284E-01  0.284E-01  0.284E-01
  -1.173  0.884E-01  0.295E-01  0.295E-01  0.295E-01
  -1.153  0.926E-01  0.309E-01  0.309E-01  0.309E-01
  -1.133  0.958E-01  0.319E-01  0.319E-01  0.319E-01
  -1.113  0.990E-01  0.330E-01  0.330E-01  0.330E-01
  -1.093  0.102E+00  0.340E-01  0.340E-01  0.340E-01
  -1.073  0.105E+00  0.350E-01  0.350E-01  0.350E-01
  -1.053  0.108E+00  0.361E-01  0.361E-01  0.361E-01
  -1.033  0.112E+00  0.372E-01  0.372E-01  0.372E-01
  -1.013  0.118E+00  0.393E-01  0.393E-01  0.393E-01
  -0.993  0.122E+00  0.407E-01  0.407E-01  0.407E-01
  -0.973  0.126E+00  0.421E-01  0.421E-01  0.421E-01
  -0.953  0.130E+00  0.434E-01  0.434E-01  0.434E-01
  -0.933  0.135E+00  0.450E-01  0.450E-01  0.450E-01
  -0.913  0.141E+00  0.469E-01  0.469E-01  0.469E-01
  -0.893  0.146E+00  0.486E-01  0.486E-01  0.486E-01
  -0.873  0.155E+00  0.516E-01  0.516E-01  0.516E-01
  -0.853  0.180E+00  0.602E-01  0.602E-01  0.602E-01
  -0.833  0.249E+00  0.830E-01  0.830E-01  0.830E-01
  -0.813  0.278E+00  0.927E-01  0.927E-01  0.927E-01
  -0.793  0.315E+00  0.105E+00  0.105E+00  0.105E+00
  -0.773  0.377E+00  0.126E+00  0.126E+00  0.126E+00
  -0.753  0.429E+00  0.143E+00  0.143E+00  0.143E+00
  -0.733  0.495E+00  0.165E+00  0.165E+00  0.165E+00
  -0.713  0.726E+00  0.242E+00  0.242E+00  0.242E+00
  -0.693  0.536E+00  0.179E+00  0.179E+00  0.179E+00
  -0.673  0.449E+00  0.150E+00  0.150E+00  0.150E+00
  -0.653  0.401E+00  0.134E+00  0.134E+00  0.134E+00
  -0.633  0.367E+00  0.122E+00  0.122E+00  0.122E+00
  -0.613  0.343E+00  0.114E+00  0.114E+00  0.114E+00
  -0.593  0.323E+00  0.108E+00  0.108E+00  0.108E+00
  -0.573  0.306E+00  0.102E+00  0.102E+00  0.102E+00
  -0.553  0.294E+00  0.978E-01  0.978E-01  0.978E-01
  -0.533  0.283E+00  0.942E-01  0.942E-01  0.942E-01
  -0.513  0.273E+00  0.910E-01  0.910E-01  0.910E-01
  -0.493  0.264E+00  0.880E-01  0.880E-01  0.880E-01
  -0.473  0.256E+00  0.852E-01  0.852E-01  0.852E-01
  -0.453  0.248E+00  0.826E-01  0.826E-01  0.826E-01
  -0.433  0.241E+00  0.803E-01  0.803E-01  0.803E-01
  -0.413  0.234E+00  0.781E-01  0.781E-01  0.781E-01
  -0.393  0.228E+00  0.760E-01  0.760E-01  0.760E-01
  -0.373  0.222E+00  0.741E-01  0.741E-01  0.741E-01
  -0.353  0.217E+00  0.723E-01  0.723E-01  0.723E-01
  -0.333  0.212E+00  0.707E-01  0.707E-01  0.707E-01
  -0.313  0.207E+00  0.689E-01  0.689E-01  0.689E-01
  -0.293  0.203E+00  0.675E-01  0.675E-01  0.675E-01
  -0.273  0.199E+00  0.663E-01  0.663E-01  0.663E-01
  -0.253  0.196E+00  0.652E-01  0.652E-01  0.652E-01
  -0.233  0.192E+00  0.641E-01  0.641E-01  0.641E-01
  -0.213  0.189E+00  0.630E-01  0.630E-01  0.630E-01
  -0.193  0.186E+00  0.620E-01  0.620E-01  0.620E-01
  -0.173  0.183E+00  0.610E-01  0.610E-01  0.610E-01
  -0.153  0.180E+00  0.600E-01  0.600E-01  0.600E-01
  -0.133  0.177E+00  0.591E-01  0.591E-01  0.591E-01
  -0.113  0.175E+00  0.582E-01  0.582E-01  0.582E-01
  -0.093  0.172E+00  0.573E-01  0.573E-01  0.573E-01
  -0.073  0.169E+00  0.565E-01  0.565E-01  0.565E-01
  -0.053  0.167E+00  0.556E-01  0.556E-01  0.556E-01
  -0.033  0.164E+00  0.548E-01  0.548E-01  0.548E-01
  -0.013  0.162E+00  0.539E-01  0.539E-01  0.539E-01
   0.007  0.159E+00  0.530E-01  0.530E-01  0.530E-01
   0.027  0.156E+00  0.521E-01  0.521E-01  0.521E-01
   0.047  0.154E+00  0.513E-01  0.513E-01  0.513E-01
   0.067  0.151E+00  0.505E-01  0.505E-01  0.505E-01
   0.087  0.149E+00  0.497E-01  0.497E-01  0.497E-01
   0.107  0.147E+00  0.491E-01  0.491E-01  0.491E-01
   0.127  0.146E+00  0.486E-01  0.486E-01  0.486E-01
   0.147  0.144E+00  0.481E-01  0.481E-01  0.481E-01
   0.167  0.143E+00  0.476E-01  0.476E-01  0.476E-01
   0.187  0.141E+00  0.470E-01  0.470E-01  0.470E-01
   0.207  0.140E+00  0.465E-01  0.465E-01  0.465E-01
   0.227  0.138E+00  0.460E-01  0.460E-01  0.460E-01
   0.247  0.137E+00  0.455E-01  0.455E-01  0.455E-01
   0.267  0.135E+00  0.450E-01  0.450E-01  0.450E-01
   0.287  0.134E+00  0.445E-01  0.445E-01  0.445E-01
   0.307  0.132E+00  0.441E-01  0.441E-01  0.441E-01
   0.327  0.131E+00  0.435E-01  0.435E-01  0.435E-01
   0.347  0.129E+00  0.430E-01  0.430E-01  0.430E-01
   0.367  0.127E+00  0.425E-01  0.425E-01  0.425E-01
   0.387  0.126E+00  0.419E-01  0.419E-01  0.419E-01
   0.407  0.124E+00  0.414E-01  0.414E-01  0.414E-01
   0.427  0.123E+00  0.409E-01  0.409E-01  0.409E-01
   0.447  0.121E+00  0.404E-01  0.404E-01  0.404E-01
   0.467  0.120E+00  0.399E-01  0.399E-01  0.399E-01
   0.487  0.117E+00  0.391E-01  0.391E-01  0.391E-01
   0.507  0.116E+00  0.387E-01  0.387E-01  0.387E-01
   0.527  0.115E+00  0.383E-01  0.383E-01  0.383E-01
   0.547  0.114E+00  0.379E-01  0.379E-01  0.379E-01
   0.567  0.113E+00  0.376E-01  0.376E-01  0.376E-01
   0.587  0.112E+00  0.373E-01  0.373E-01  0.373E-01
   0.607  0.111E+00  0.370E-01  0.370E-01  0.370E-01
   0.627  0.110E+00  0.367E-01  0.367E-01  0.367E-01
   0.647  0.109E+00  0.363E-01  0.363E-01  0.363E-01
   0.667  0.108E+00  0.360E-01  0.360E-01  0.360E-01
   0.687  0.107E+00  0.357E-01  0.357E-01  0.357E-01
   0.707  0.106E+00  0.354E-01  0.354E-01  0.354E-01
   0.727  0.105E+00  0.350E-01  0.350E-01  0.350E-01
   0.747  0.104E+00  0.347E-01  0.347E-01  0.347E-01
   0.767  0.103E+00  0.343E-01  0.343E-01  0.343E-01
   0.787  0.102E+00  0.340E-01  0.340E-01  0.340E-01
   0.807  0.101E+00  0.336E-01  0.336E-01  0.336E-01
   0.827  0.999E-01  0.333E-01  0.333E-01  0.333E-01
   0.847  0.988E-01  0.329E-01  0.329E-01  0.329E-01
   0.867  0.977E-01  0.326E-01  0.326E-01  0.326E-01
   0.887  0.966E-01  0.322E-01  0.322E-01  0.322E-01
   0.907  0.951E-01  0.317E-01  0.317E-01  0.317E-01
   0.927  0.939E-01  0.313E-01  0.313E-01  0.313E-01
   0.947  0.929E-01  0.310E-01  0.310E-01  0.310E-01
   0.967  0.915E-01  0.305E-01  0.305E-01  0.305E-01
   0.987  0.904E-01  0.301E-01  0.301E-01  0.301E-01
   1.007  0.897E-01  0.299E-01  0.299E-01  0.299E-01
   1.027  0.890E-01  0.297E-01  0.297E-01  0.297E-01
   1.047  0.883E-01  0.294E-01  0.294E-01  0.294E-01
   1.067  0.877E-01  0.292E-01  0.292E-01  0.292E-01
   1.087  0.870E-01  0.290E-01  0.290E-01  0.290E-01
   1.107  0.863E-01  0.288E-01  0.288E-01  0.288E-01
   1.127  0.856E-01  0.285E-01  0.285E-01  0.285E-01
   1.147  0.849E-01  0.283E-01  0.283E-01  0.283E-01
   1.167  0.842E-01  0.281E-01  0.281E-01  0.281E-01
   1.187  0.835E-01  0.278E-01  0.278E-01  0.278E-01
   1.207  0.829E-01  0.276E-01  0.276E-01  0.276E-01
   1.227  0.822E-01  0.274E-01  0.274E-01  0.274E-01
   1.247  0.815E-01  0.272E-01  0.272E-01  0.272E-01
   1.267  0.808E-01  0.269E-01  0.269E-01  0.269E-01
   1.287  0.800E-01  0.267E-01  0.267E-01  0.267E-01
   1.307  0.792E-01  0.264E-01  0.264E-01  0.264E-01
   1.327  0.783E-01  0.261E-01  0.261E-01  0.261E-01
   1.347  0.774E-01  0.258E-01  0.258E-01  0.258E-01
   1.367  0.766E-01  0.255E-01  0.255E-01  0.255E-01
   1.387  0.757E-01  0.252E-01  0.252E-01  0.252E-01
   1.407  0.749E-01  0.250E-01  0.250E-01  0.250E-01
   1.427  0.740E-01  0.247E-01  0.247E-01  0.247E-01
   1.447  0.732E-01  0.244E-01  0.244E-01  0.244E-01
   1.467  0.717E-01  0.239E-01  0.239E-01  0.239E-01
   1.487  0.709E-01  0.236E-01  0.236E-01  0.236E-01
   1.507  0.702E-01  0.234E-01  0.234E-01  0.234E-01
   1.527  0.697E-01  0.232E-01  0.232E-01  0.232E-01
   1.547  0.692E-01  0.231E-01  0.231E-01  0.231E-01
   1.567  0.687E-01  0.229E-01  0.229E-01  0.229E-01
   1.587  0.682E-01  0.227E-01  0.227E-01  0.227E-01
   1.607  0.678E-01  0.226E-01  0.226E-01  0.226E-01
   1.627  0.673E-01  0.224E-01  0.224E-01  0.224E-01
   1.647  0.668E-01  0.223E-01  0.223E-01  0.223E-01
   1.667  0.663E-01  0.221E-01  0.221E-01  0.221E-01
   1.687  0.755E-01  0.252E-01  0.252E-01  0.252E-01
   1.707  0.128E+00  0.425E-01  0.425E-01  0.425E-01
   1.727  0.201E+00  0.670E-01  0.670E-01  0.670E-01
   1.747  0.224E+00  0.746E-01  0.746E-01  0.746E-01
   1.767  0.247E+00  0.825E-01  0.825E-01  0.825E-01
   1.787  0.278E+00  0.927E-01  0.927E-01  0.927E-01
   1.807  0.315E+00  0.105E+00  0.105E+00  0.105E+00
   1.827  0.344E+00  0.115E+00  0.115E+00  0.115E+00
   1.847  0.367E+00  0.122E+00  0.122E+00  0.122E+00
   1.867  0.391E+00  0.130E+00  0.130E+00  0.130E+00
   1.887  0.422E+00  0.141E+00  0.141E+00  0.141E+00
   1.907  0.462E+00  0.154E+00  0.154E+00  0.154E+00
   1.927  0.506E+00  0.169E+00  0.169E+00  0.169E+00
   1.947  0.557E+00  0.186E+00  0.186E+00  0.186E+00
   1.967  0.622E+00  0.207E+00  0.207E+00  0.207E+00
   1.987  0.634E+00  0.211E+00  0.211E+00  0.211E+00
   2.007  0.580E+00  0.194E+00  0.193E+00  0.193E+00
   2.027  0.572E+00  0.191E+00  0.190E+00  0.190E+00
   2.047  0.563E+00  0.189E+00  0.187E+00  0.187E+00
   2.067  0.553E+00  0.186E+00  0.184E+00  0.184E+00
   2.087  0.545E+00  0.184E+00  0.181E+00  0.181E+00
   2.107  0.537E+00  0.182E+00  0.178E+00  0.178E+00
   2.127  0.530E+00  0.179E+00  0.175E+00  0.175E+00
   2.147  0.523E+00  0.178E+00  0.173E+00  0.173E+00
   2.167  0.520E+00  0.177E+00  0.172E+00  0.172E+00
   2.187  0.510E+00  0.174E+00  0.168E+00  0.168E+00
   2.207  0.497E+00  0.169E+00  0.164E+00  0.164E+00
   2.227  0.487E+00  0.165E+00  0.161E+00  0.161E+00
   2.247  0.476E+00  0.161E+00  0.157E+00  0.157E+00
   2.267  0.470E+00  0.158E+00  0.156E+00  0.156E+00
   2.287  0.467E+00  0.157E+00  0.155E+00  0.155E+00
   2.307  0.465E+00  0.156E+00  0.155E+00  0.155E+00
   2.327  0.464E+00  0.155E+00  0.154E+00  0.154E+00
   2.347  0.461E+00  0.154E+00  0.154E+00  0.154E+00
   2.367  0.459E+00  0.153E+00  0.153E+00  0.153E+00
   2.387  0.459E+00  0.152E+00  0.153E+00  0.153E+00
   2.407  0.461E+00  0.153E+00  0.154E+00  0.154E+00
   2.427  0.481E+00  0.160E+00  0.161E+00  0.161E+00
   2.447  0.476E+00  0.158E+00  0.159E+00  0.159E+00
   2.467  0.472E+00  0.156E+00  0.158E+00  0.158E+00
   2.487  0.469E+00  0.155E+00  0.157E+00  0.157E+00
   2.507  0.466E+00  0.154E+00  0.156E+00  0.156E+00
   2.527  0.469E+00  0.155E+00  0.157E+00  0.157E+00
   2.547  0.472E+00  0.156E+00  0.158E+00  0.158E+00
   2.567  0.473E+00  0.157E+00  0.158E+00  0.158E+00
   2.587  0.472E+00  0.156E+00  0.158E+00  0.158E+00
   2.607  0.471E+00  0.156E+00  0.158E+00  0.158E+00
   2.627  0.473E+00  0.157E+00  0.158E+00  0.158E+00
   2.647  0.482E+00  0.160E+00  0.161E+00  0.161E+00
   2.667  0.486E+00  0.162E+00  0.162E+00  0.162E+00
   2.687  0.482E+00  0.160E+00  0.161E+00  0.161E+00
   2.707  0.481E+00  0.160E+00  0.160E+00  0.160E+00
   2.727  0.483E+00  0.161E+00  0.161E+00  0.161E+00
   2.747  0.488E+00  0.163E+00  0.163E+00  0.163E+00
   2.767  0.519E+00  0.175E+00  0.172E+00  0.172E+00
   2.787  0.503E+00  0.168E+00  0.168E+00  0.168E+00
   2.807  0.512E+00  0.171E+00  0.171E+00  0.171E+00
   2.827  0.524E+00  0.174E+00  0.175E+00  0.175E+00
   2.847  0.523E+00  0.174E+00  0.175E+00  0.175E+00
   2.867  0.532E+00  0.177E+00  0.178E+00  0.178E+00
   2.887  0.544E+00  0.180E+00  0.182E+00  0.182E+00
   2.907  0.542E+00  0.180E+00  0.181E+00  0.181E+00
   2.927  0.541E+00  0.180E+00  0.180E+00  0.180E+00
   2.947  0.546E+00  0.182E+00  0.182E+00  0.182E+00
   2.967  0.551E+00  0.183E+00  0.184E+00  0.184E+00
   2.987  0.556E+00  0.185E+00  0.186E+00  0.186E+00
   3.007  0.562E+00  0.187E+00  0.187E+00  0.187E+00
   3.027  0.567E+00  0.189E+00  0.189E+00  0.189E+00
   3.047  0.575E+00  0.192E+00  0.192E+00  0.192E+00
   3.067  0.650E+00  0.224E+00  0.213E+00  0.213E+00
   3.087  0.613E+00  0.204E+00  0.204E+00  0.204E+00
   3.107  0.636E+00  0.210E+00  0.213E+00  0.213E+00
   3.127  0.673E+00  0.223E+00  0.225E+00  0.225E+00
   3.147  0.672E+00  0.223E+00  0.224E+00  0.224E+00
   3.167  0.684E+00  0.227E+00  0.228E+00  0.228E+00
   3.187  0.710E+00  0.235E+00  0.238E+00  0.238E+00
   3.207  0.758E+00  0.247E+00  0.255E+00  0.255E+00
   3.227  0.739E+00  0.246E+00  0.247E+00  0.247E+00
   3.247  0.733E+00  0.245E+00  0.244E+00  0.244E+00
   3.267  0.730E+00  0.244E+00  0.243E+00  0.243E+00
   3.287  0.733E+00  0.245E+00  0.244E+00  0.244E+00
   3.307  0.736E+00  0.244E+00  0.246E+00  0.246E+00
   3.327  0.722E+00  0.239E+00  0.241E+00  0.241E+00
   3.347  0.716E+00  0.238E+00  0.239E+00  0.239E+00
   3.367  0.715E+00  0.238E+00  0.238E+00  0.238E+00
   3.387  0.713E+00  0.238E+00  0.238E+00  0.238E+00
   3.407  0.711E+00  0.237E+00  0.237E+00  0.237E+00
   3.427  0.709E+00  0.237E+00  0.236E+00  0.236E+00
   3.447  0.707E+00  0.236E+00  0.236E+00  0.236E+00
   3.467  0.707E+00  0.236E+00  0.235E+00  0.235E+00
   3.487  0.704E+00  0.234E+00  0.235E+00  0.235E+00
   3.507  0.699E+00  0.232E+00  0.233E+00  0.233E+00
   3.527  0.695E+00  0.231E+00  0.232E+00  0.232E+00
   3.547  0.692E+00  0.230E+00  0.231E+00  0.231E+00
   3.567  0.689E+00  0.229E+00  0.230E+00  0.230E+00
   3.587  0.687E+00  0.229E+00  0.229E+00  0.229E+00
   3.607  0.687E+00  0.229E+00  0.229E+00  0.229E+00
   3.627  0.687E+00  0.229E+00  0.229E+00  0.229E+00
   3.647  0.686E+00  0.229E+00  0.229E+00  0.229E+00
   3.667  0.684E+00  0.228E+00  0.228E+00  0.228E+00
   3.687  0.681E+00  0.228E+00  0.227E+00  0.227E+00
   3.707  0.679E+00  0.226E+00  0.226E+00  0.226E+00
   3.727  0.675E+00  0.225E+00  0.225E+00  0.225E+00
   3.747  0.671E+00  0.224E+00  0.224E+00  0.224E+00
   3.767  0.667E+00  0.222E+00  0.222E+00  0.222E+00
   3.787  0.662E+00  0.221E+00  0.221E+00  0.221E+00
   3.807  0.659E+00  0.219E+00  0.220E+00  0.220E+00
   3.827  0.656E+00  0.218E+00  0.219E+00  0.219E+00
   3.847  0.653E+00  0.217E+00  0.218E+00  0.218E+00
   3.867  0.650E+00  0.216E+00  0.217E+00  0.217E+00
   3.887  0.650E+00  0.216E+00  0.217E+00  0.217E+00
   3.907  0.649E+00  0.216E+00  0.217E+00  0.217E+00
   3.927  0.648E+00  0.216E+00  0.216E+00  0.216E+00
   3.947  0.645E+00  0.215E+00  0.215E+00  0.215E+00
   3.967  0.642E+00  0.214E+00  0.214E+00  0.214E+00
   3.987  0.640E+00  0.214E+00  0.213E+00  0.213E+00
   4.007  0.638E+00  0.213E+00  0.213E+00  0.213E+00
   4.027  0.637E+00  0.213E+00  0.212E+00  0.212E+00
   4.047  0.634E+00  0.212E+00  0.211E+00  0.211E+00
   4.067  0.632E+00  0.211E+00  0.210E+00  0.210E+00
   4.087  0.630E+00  0.210E+00  0.210E+00  0.210E+00
   4.107  0.628E+00  0.209E+00  0.209E+00  0.209E+00
   4.127  0.626E+00  0.208E+00  0.209E+00  0.209E+00
   4.147  0.624E+00  0.208E+00  0.208E+00  0.208E+00
   4.167  0.622E+00  0.207E+00  0.207E+00  0.207E+00
   4.187  0.621E+00  0.206E+00  0.207E+00  0.207E+00
   4.207  0.620E+00  0.206E+00  0.207E+00  0.207E+00
   4.227  0.618E+00  0.205E+00  0.206E+00  0.206E+00
   4.247  0.615E+00  0.205E+00  0.205E+00  0.205E+00
   4.267  0.611E+00  0.203E+00  0.204E+00  0.204E+00
   4.287  0.607E+00  0.202E+00  0.202E+00  0.202E+00
   4.307  0.604E+00  0.201E+00  0.201E+00  0.201E+00
   4.327  0.602E+00  0.201E+00  0.201E+00  0.201E+00
   4.347  0.601E+00  0.200E+00  0.200E+00  0.200E+00
   4.367  0.599E+00  0.200E+00  0.199E+00  0.199E+00
   4.387  0.597E+00  0.199E+00  0.199E+00  0.199E+00
   4.407  0.595E+00  0.199E+00  0.198E+00  0.198E+00
   4.427  0.594E+00  0.199E+00  0.198E+00  0.198E+00
   4.447  0.595E+00  0.199E+00  0.198E+00  0.198E+00
   4.467  0.596E+00  0.199E+00  0.199E+00  0.199E+00
   4.487  0.595E+00  0.199E+00  0.198E+00  0.198E+00
   4.507  0.592E+00  0.197E+00  0.197E+00  0.197E+00
   4.527  0.588E+00  0.196E+00  0.196E+00  0.196E+00
   4.547  0.587E+00  0.196E+00  0.196E+00  0.196E+00
   4.567  0.590E+00  0.197E+00  0.196E+00  0.197E+00
   4.587  0.588E+00  0.197E+00  0.195E+00  0.196E+00
   4.607  0.587E+00  0.197E+00  0.194E+00  0.196E+00
   4.627  0.585E+00  0.197E+00  0.193E+00  0.195E+00
   4.647  0.583E+00  0.197E+00  0.192E+00  0.194E+00
   4.667  0.581E+00  0.197E+00  0.191E+00  0.193E+00
   4.687  0.577E+00  0.196E+00  0.189E+00  0.192E+00
   4.707  0.574E+00  0.196E+00  0.187E+00  0.191E+00
   4.727  0.571E+00  0.195E+00  0.186E+00  0.190E+00
   4.747  0.571E+00  0.195E+00  0.187E+00  0.190E+00
   4.767  0.567E+00  0.190E+00  0.189E+00  0.189E+00
   4.787  0.547E+00  0.178E+00  0.186E+00  0.183E+00
   4.807  0.501E+00  0.163E+00  0.171E+00  0.167E+00
   4.827  0.463E+00  0.153E+00  0.156E+00  0.154E+00
   4.847  0.441E+00  0.146E+00  0.148E+00  0.147E+00
   4.867  0.418E+00  0.139E+00  0.140E+00  0.139E+00
   4.887  0.400E+00  0.134E+00  0.133E+00  0.133E+00
   4.907  0.387E+00  0.129E+00  0.129E+00  0.129E+00
   4.927  0.375E+00  0.125E+00  0.125E+00  0.125E+00
   4.947  0.362E+00  0.121E+00  0.121E+00  0.120E+00
   4.967  0.349E+00  0.117E+00  0.116E+00  0.116E+00
   4.987  0.338E+00  0.113E+00  0.113E+00  0.113E+00
   5.007  0.329E+00  0.109E+00  0.110E+00  0.110E+00
   5.027  0.320E+00  0.106E+00  0.107E+00  0.107E+00
   5.047  0.310E+00  0.103E+00  0.104E+00  0.104E+00
   5.067  0.301E+00  0.999E-01  0.100E+00  0.100E+00
   5.087  0.291E+00  0.967E-01  0.971E-01  0.971E-01
   5.107  0.282E+00  0.936E-01  0.940E-01  0.940E-01
   5.127  0.273E+00  0.907E-01  0.912E-01  0.912E-01
   5.147  0.265E+00  0.881E-01  0.887E-01  0.886E-01
   5.167  0.258E+00  0.857E-01  0.863E-01  0.862E-01
   5.187  0.251E+00  0.833E-01  0.839E-01  0.838E-01
   5.207  0.244E+00  0.811E-01  0.817E-01  0.816E-01
   5.227  0.239E+00  0.793E-01  0.796E-01  0.796E-01
   5.247  0.232E+00  0.773E-01  0.772E-01  0.772E-01
   5.267  0.225E+00  0.751E-01  0.748E-01  0.747E-01
   5.287  0.218E+00  0.729E-01  0.724E-01  0.724E-01
   5.307  0.211E+00  0.707E-01  0.702E-01  0.701E-01
   5.327  0.205E+00  0.688E-01  0.683E-01  0.682E-01
   5.347  0.200E+00  0.669E-01  0.665E-01  0.664E-01
   5.367  0.195E+00  0.651E-01  0.648E-01  0.647E-01
   5.387  0.189E+00  0.630E-01  0.629E-01  0.628E-01
   5.407  0.183E+00  0.609E-01  0.609E-01  0.608E-01
   5.427  0.177E+00  0.588E-01  0.589E-01  0.588E-01
   5.447  0.171E+00  0.568E-01  0.570E-01  0.569E-01
   5.467  0.165E+00  0.549E-01  0.553E-01  0.552E-01
   5.487  0.160E+00  0.530E-01  0.535E-01  0.534E-01
   5.507  0.154E+00  0.511E-01  0.516E-01  0.515E-01
   5.527  0.148E+00  0.490E-01  0.496E-01  0.495E-01
   5.547  0.142E+00  0.471E-01  0.477E-01  0.476E-01
   5.567  0.137E+00  0.452E-01  0.459E-01  0.458E-01
   5.587  0.132E+00  0.434E-01  0.441E-01  0.440E-01
   5.607  0.126E+00  0.416E-01  0.425E-01  0.423E-01
   5.627  0.122E+00  0.400E-01  0.410E-01  0.408E-01
   5.647  0.122E+00  0.402E-01  0.411E-01  0.408E-01
   5.667  0.118E+00  0.392E-01  0.396E-01  0.393E-01
   5.687  0.113E+00  0.379E-01  0.376E-01  0.374E-01
   5.707  0.106E+00  0.358E-01  0.350E-01  0.348E-01
   5.727  0.985E-01  0.337E-01  0.325E-01  0.324E-01
   5.747  0.921E-01  0.316E-01  0.303E-01  0.302E-01
   5.767  0.864E-01  0.296E-01  0.285E-01  0.283E-01
   5.787  0.812E-01  0.272E-01  0.272E-01  0.268E-01
   5.807  0.761E-01  0.246E-01  0.261E-01  0.254E-01
   5.827  0.691E-01  0.215E-01  0.243E-01  0.233E-01
   5.847  0.592E-01  0.176E-01  0.213E-01  0.202E-01
   5.867  0.490E-01  0.137E-01  0.183E-01  0.170E-01
   5.887  0.419E-01  0.108E-01  0.163E-01  0.148E-01
   5.907  0.363E-01  0.845E-02  0.148E-01  0.131E-01
   5.927  0.325E-01  0.673E-02  0.139E-01  0.118E-01
   5.947  0.884E-02  0.169E-02  0.358E-02  0.358E-02
   5.967  0.210E-02  0.202E-03  0.947E-03  0.947E-03
   5.987  0.000E+00  0.000E+00  0.000E+00  0.000E+00
   6.007  0.000E+00  0.000E+00  0.000E+00  0.000E+00
   6.027  0.000E+00  0.000E+00  0.000E+00  0.000E+00
   6.047  0.000E+00  0.000E+00  0.000E+00  0.000E+00
   6.067  0.000E+00  0.000E+00  0.000E+00  0.000E+00
   6.087  0.000E+00  0.000E+00  0.000E+00  0.000E+00
   6.107  0.000E+00  0.000E+00  0.000E+00  0.000E+00
   6.127  0.000E+00  0.000E+00  0.000E+00  0.000E+00
   6.147  0.000E+00  0.000E+00  0.000E+00  0.000E+00
   6.167  0.000E+00  0.000E+00  0.000E+00  0.000E+00
   6.187  0.000E+00  0.000E+00  0.000E+00  0.000E+00
   6.207  0.000E+00  0.000E+00  0.000E+00  0.000E+00
   6.227  0.000E+00  0.000E+00  0.000E+00  0.000E+00
   6.247  0.000E+00  0.000E+00  0.000E+00  0.000E+00
   6.267  0.000E+00  0.000E+00  0.000E+00  0.000E+00
   6.287  0.000E+00  0.000E+00  0.000E+00  0.000E+00
   6.307  0.000E+00  0.000E+00  0.000E+00  0.000E+00
   6.327  0.000E+00  0.000E+00  0.000E+00  0.000E+00
   6.347  0.000E+00  0.000E+00  0.000E+00  0.000E+00
   6.367  0.000E+00  0.000E+00  0.000E+00  0.000E+00
   6.387  0.000E+00  0.000E+00  0.000E+00  0.000E+00
   6.407  0.000E+00  0.000E+00  0.000E+00  0.000E+00
   6.427  0.000E+00  0.000E+00  0.000E+00  0.000E+00
   6.447  0.000E+00  0.000E+00  0.000E+00  0.000E+00
   6.467  0.000E+00  0.000E+00  0.000E+00  0.000E+00
   6.487  0.000E+00  0.000E+00  0.000E+00  0.000E+00
   6.507  0.000E+00  0.000E+00  0.000E+00  0.000E+00
   6.527  0.000E+00  0.000E+00  0.000E+00  0.000E+00
   6.547  0.000E+00  0.000E+00  0.000E+00  0.000E+00
   6.567  0.000E+00  0.000E+00  0.000E+00  0.000E+00
   6.587  0.000E+00  0.000E+00  0.000E+00  0.000E+00
   6.607  0.390E-04  0.130E-04  0.130E-04  0.130E-04
   6.627  0.330E-02  0.110E-02  0.110E-02  0.110E-02
   6.647  0.815E-02  0.272E-02  0.272E-02  0.272E-02
   6.667  0.139E-01  0.463E-02  0.463E-02  0.463E-02
   6.687  0.205E-01  0.684E-02  0.684E-02  0.684E-02
   6.707  0.280E-01  0.932E-02  0.932E-02  0.932E-02
   6.727  0.357E-01  0.119E-01  0.119E-01  0.119E-01
   6.747  0.426E-01  0.142E-01  0.142E-01  0.142E-01
   6.767  0.471E-01  0.157E-01  0.157E-01  0.157E-01
   6.787  0.517E-01  0.172E-01  0.172E-01  0.172E-01
   6.807  0.564E-01  0.188E-01  0.188E-01  0.188E-01
   6.827  0.611E-01  0.203E-01  0.204E-01  0.204E-01
   6.847  0.656E-01  0.219E-01  0.219E-01  0.219E-01
   6.867  0.707E-01  0.236E-01  0.236E-01  0.236E-01
   6.887  0.759E-01  0.253E-01  0.253E-01  0.253E-01
   6.907  0.806E-01  0.269E-01  0.269E-01  0.269E-01
   6.927  0.858E-01  0.286E-01  0.286E-01  0.286E-01
   6.947  0.909E-01  0.303E-01  0.303E-01  0.303E-01
   6.967  0.962E-01  0.321E-01  0.321E-01  0.321E-01
   6.987  0.101E+00  0.336E-01  0.336E-01  0.336E-01
   7.007  0.104E+00  0.346E-01  0.346E-01  0.346E-01
   7.027  0.106E+00  0.352E-01  0.352E-01  0.352E-01
   7.047  0.109E+00  0.363E-01  0.363E-01  0.363E-01
   7.067  0.112E+00  0.374E-01  0.374E-01  0.374E-01
   7.087  0.116E+00  0.385E-01  0.385E-01  0.385E-01
   7.107  0.119E+00  0.396E-01  0.396E-01  0.396E-01
   7.127  0.122E+00  0.406E-01  0.406E-01  0.406E-01
   7.147  0.125E+00  0.415E-01  0.416E-01  0.416E-01
   7.167  0.128E+00  0.426E-01  0.426E-01  0.426E-01
   7.187  0.131E+00  0.437E-01  0.437E-01  0.437E-01
   7.207  0.135E+00  0.448E-01  0.448E-01  0.448E-01
   7.227  0.138E+00  0.459E-01  0.460E-01  0.460E-01
   7.247  0.141E+00  0.471E-01  0.471E-01  0.471E-01
   7.267  0.145E+00  0.482E-01  0.483E-01  0.483E-01
   7.287  0.148E+00  0.494E-01  0.495E-01  0.495E-01
   7.307  0.152E+00  0.506E-01  0.507E-01  0.507E-01
   7.327  0.156E+00  0.518E-01  0.519E-01  0.519E-01
   7.347  0.159E+00  0.531E-01  0.531E-01  0.531E-01
   7.367  0.163E+00  0.543E-01  0.543E-01  0.543E-01
   7.387  0.167E+00  0.556E-01  0.556E-01  0.556E-01
   7.407  0.171E+00  0.569E-01  0.569E-01  0.569E-01
   7.427  0.174E+00  0.581E-01  0.581E-01  0.581E-01
   7.447  0.178E+00  0.594E-01  0.594E-01  0.594E-01
   7.467  0.182E+00  0.607E-01  0.607E-01  0.607E-01
   7.487  0.187E+00  0.622E-01  0.622E-01  0.622E-01
   7.507  0.192E+00  0.639E-01  0.639E-01  0.639E-01
   7.527  0.197E+00  0.656E-01  0.656E-01  0.656E-01
   7.547  0.202E+00  0.674E-01  0.675E-01  0.675E-01
   7.567  0.209E+00  0.696E-01  0.696E-01  0.696E-01
   7.587  0.214E+00  0.714E-01  0.714E-01  0.714E-01
   7.607  0.219E+00  0.731E-01  0.731E-01  0.731E-01
   7.627  0.224E+00  0.748E-01  0.748E-01  0.748E-01
   7.647  0.230E+00  0.765E-01  0.765E-01  0.765E-01
   7.667  0.235E+00  0.782E-01  0.782E-01  0.782E-01
   7.687  0.239E+00  0.798E-01  0.798E-01  0.798E-01
   7.707  0.244E+00  0.812E-01  0.812E-01  0.812E-01
   7.727  0.248E+00  0.828E-01  0.828E-01  0.828E-01
   7.747  0.254E+00  0.846E-01  0.846E-01  0.846E-01
   7.767  0.259E+00  0.865E-01  0.865E-01  0.865E-01
   7.787  0.265E+00  0.883E-01  0.883E-01  0.883E-01
   7.807  0.271E+00  0.902E-01  0.902E-01  0.902E-01
   7.827  0.276E+00  0.921E-01  0.921E-01  0.921E-01
   7.847  0.283E+00  0.942E-01  0.942E-01  0.942E-01
   7.867  0.289E+00  0.963E-01  0.963E-01  0.963E-01
   7.887  0.295E+00  0.984E-01  0.985E-01  0.985E-01
   7.907  0.302E+00  0.101E+00  0.101E+00  0.101E+00
   7.927  0.309E+00  0.103E+00  0.103E+00  0.103E+00
   7.947  0.316E+00  0.105E+00  0.105E+00  0.105E+00
   7.967  0.323E+00  0.108E+00  0.108E+00  0.108E+00
   7.987  0.331E+00  0.110E+00  0.110E+00  0.110E+00
   8.007  0.339E+00  0.113E+00  0.113E+00  0.113E+00
   8.027  0.347E+00  0.116E+00  0.116E+00  0.116E+00
   8.047  0.356E+00  0.119E+00  0.119E+00  0.119E+00
   8.067  0.367E+00  0.122E+00  0.122E+00  0.122E+00
   8.087  0.380E+00  0.127E+00  0.127E+00  0.127E+00
   8.107  0.417E+00  0.139E+00  0.139E+00  0.139E+00
   8.127  0.439E+00  0.146E+00  0.146E+00  0.146E+00
   8.147  0.454E+00  0.151E+00  0.151E+00  0.151E+00
   8.167  0.464E+00  0.155E+00  0.155E+00  0.155E+00
   8.187  0.472E+00  0.157E+00  0.157E+00  0.157E+00
   8.207  0.478E+00  0.159E+00  0.159E+00  0.159E+00
   8.227  0.482E+00  0.161E+00  0.161E+00  0.161E+00
   8.247  0.485E+00  0.162E+00  0.162E+00  0.162E+00
   8.267  0.487E+00  0.162E+00  0.162E+00  0.162E+00
   8.287  0.489E+00  0.163E+00  0.163E+00  0.163E+00
   8.307  0.492E+00  0.164E+00  0.164E+00  0.164E+00
   8.327  0.493E+00  0.164E+00  0.164E+00  0.164E+00
   8.347  0.499E+00  0.166E+00  0.166E+00  0.166E+00
   8.367  0.488E+00  0.163E+00  0.163E+00  0.163E+00
   8.387  0.475E+00  0.158E+00  0.158E+00  0.158E+00
   8.407  0.465E+00  0.155E+00  0.155E+00  0.155E+00
   8.427  0.462E+00  0.154E+00  0.154E+00  0.154E+00
   8.447  0.467E+00  0.156E+00  0.156E+00  0.156E+00
   8.467  0.476E+00  0.159E+00  0.159E+00  0.159E+00
   8.487  0.478E+00  0.159E+00  0.160E+00  0.159E+00
   8.507  0.467E+00  0.155E+00  0.156E+00  0.155E+00
   8.527  0.453E+00  0.151E+00  0.152E+00  0.151E+00
   8.547  0.442E+00  0.146E+00  0.149E+00  0.146E+00
   8.567  0.428E+00  0.142E+00  0.143E+00  0.142E+00
   8.587  0.410E+00  0.137E+00  0.136E+00  0.137E+00
   8.607  0.396E+00  0.133E+00  0.131E+00  0.133E+00
   8.627  0.391E+00  0.131E+00  0.130E+00  0.131E+00
   8.647  0.390E+00  0.130E+00  0.130E+00  0.130E+00
   8.667  0.391E+00  0.130E+00  0.131E+00  0.131E+00
   8.687  0.394E+00  0.131E+00  0.132E+00  0.132E+00
   8.707  0.387E+00  0.128E+00  0.130E+00  0.129E+00
   8.727  0.372E+00  0.123E+00  0.125E+00  0.124E+00
   8.747  0.358E+00  0.118E+00  0.120E+00  0.120E+00
   8.767  0.354E+00  0.117E+00  0.119E+00  0.118E+00
   8.787  0.356E+00  0.117E+00  0.120E+00  0.119E+00
   8.807  0.366E+00  0.120E+00  0.124E+00  0.122E+00
   8.827  0.383E+00  0.123E+00  0.132E+00  0.128E+00
   8.847  0.334E+00  0.112E+00  0.111E+00  0.111E+00
   8.867  0.329E+00  0.110E+00  0.110E+00  0.110E+00
   8.887  0.329E+00  0.110E+00  0.110E+00  0.110E+00
   8.907  0.329E+00  0.110E+00  0.110E+00  0.110E+00
   8.927  0.332E+00  0.111E+00  0.111E+00  0.111E+00
   8.947  0.332E+00  0.111E+00  0.111E+00  0.111E+00
   8.967  0.330E+00  0.110E+00  0.110E+00  0.110E+00
   8.987  0.324E+00  0.108E+00  0.108E+00  0.108E+00
   9.007  0.324E+00  0.107E+00  0.108E+00  0.108E+00
   9.027  0.331E+00  0.110E+00  0.111E+00  0.110E+00
   9.047  0.318E+00  0.105E+00  0.106E+00  0.106E+00
   9.067  0.308E+00  0.102E+00  0.103E+00  0.103E+00
   9.087  0.301E+00  0.999E-01  0.101E+00  0.100E+00
   9.107  0.299E+00  0.993E-01  0.999E-01  0.997E-01
   9.127  0.295E+00  0.980E-01  0.987E-01  0.985E-01
   9.147  0.290E+00  0.963E-01  0.970E-01  0.968E-01
   9.167  0.303E+00  0.101E+00  0.101E+00  0.101E+00
   9.187  0.325E+00  0.108E+00  0.109E+00  0.109E+00
   9.207  0.345E+00  0.115E+00  0.115E+00  0.115E+00
   9.227  0.395E+00  0.131E+00  0.132E+00  0.132E+00
   9.247  0.585E+00  0.195E+00  0.195E+00  0.195E+00
   9.267  0.769E+00  0.256E+00  0.257E+00  0.256E+00
   9.287  0.891E+00  0.296E+00  0.298E+00  0.297E+00
   9.307  0.100E+01  0.330E+00  0.339E+00  0.336E+00
   9.327  0.855E+00  0.275E+00  0.293E+00  0.286E+00
   9.347  0.772E+00  0.250E+00  0.264E+00  0.258E+00
   9.367  0.755E+00  0.247E+00  0.256E+00  0.252E+00
   9.387  0.744E+00  0.245E+00  0.251E+00  0.248E+00
   9.407  0.737E+00  0.244E+00  0.248E+00  0.246E+00
   9.427  0.714E+00  0.237E+00  0.239E+00  0.238E+00
   9.447  0.685E+00  0.227E+00  0.230E+00  0.229E+00
   9.467  0.652E+00  0.218E+00  0.216E+00  0.217E+00
   9.487  0.632E+00  0.214E+00  0.207E+00  0.210E+00
   9.507  0.616E+00  0.211E+00  0.200E+00  0.205E+00
   9.527  0.602E+00  0.207E+00  0.195E+00  0.200E+00
   9.547  0.584E+00  0.201E+00  0.189E+00  0.194E+00
   9.567  0.572E+00  0.197E+00  0.185E+00  0.190E+00
   9.587  0.576E+00  0.198E+00  0.187E+00  0.191E+00
   9.607  0.587E+00  0.201E+00  0.191E+00  0.195E+00
   9.627  0.613E+00  0.208E+00  0.201E+00  0.204E+00
   9.647  0.611E+00  0.206E+00  0.201E+00  0.203E+00
   9.667  0.611E+00  0.206E+00  0.202E+00  0.204E+00
   9.687  0.608E+00  0.204E+00  0.201E+00  0.202E+00
   9.707  0.599E+00  0.200E+00  0.199E+00  0.200E+00
   9.727  0.586E+00  0.196E+00  0.195E+00  0.195E+00
   9.747  0.569E+00  0.190E+00  0.190E+00  0.190E+00
   9.767  0.549E+00  0.183E+00  0.183E+00  0.183E+00
   9.787  0.529E+00  0.176E+00  0.177E+00  0.177E+00
   9.807  0.513E+00  0.171E+00  0.171E+00  0.171E+00
   9.827  0.496E+00  0.165E+00  0.166E+00  0.166E+00
   9.847  0.478E+00  0.159E+00  0.159E+00  0.159E+00
   9.867  0.461E+00  0.153E+00  0.154E+00  0.154E+00
   9.887  0.448E+00  0.149E+00  0.150E+00  0.150E+00
   9.907  0.437E+00  0.145E+00  0.146E+00  0.146E+00
   9.927  0.428E+00  0.142E+00  0.143E+00  0.143E+00
   9.947  0.431E+00  0.143E+00  0.144E+00  0.144E+00
   9.967  0.433E+00  0.144E+00  0.145E+00  0.145E+00
   9.987  0.426E+00  0.142E+00  0.142E+00  0.142E+00
  10.007  0.417E+00  0.139E+00  0.139E+00  0.139E+00
  10.027  0.408E+00  0.137E+00  0.136E+00  0.136E+00
  10.047  0.399E+00  0.133E+00  0.133E+00  0.133E+00
  10.067  0.387E+00  0.129E+00  0.129E+00  0.129E+00
  10.087  0.371E+00  0.124E+00  0.124E+00  0.124E+00
  10.107  0.357E+00  0.119E+00  0.119E+00  0.119E+00
  10.127  0.351E+00  0.117E+00  0.117E+00  0.117E+00
  10.147  0.347E+00  0.116E+00  0.116E+00  0.116E+00
  10.167  0.346E+00  0.116E+00  0.115E+00  0.115E+00
  10.187  0.346E+00  0.116E+00  0.115E+00  0.115E+00
  10.207  0.344E+00  0.115E+00  0.114E+00  0.115E+00
  10.227  0.341E+00  0.114E+00  0.114E+00  0.114E+00
  10.247  0.339E+00  0.113E+00  0.113E+00  0.113E+00
  10.267  0.341E+00  0.114E+00  0.113E+00  0.113E+00
  10.287  0.362E+00  0.122E+00  0.120E+00  0.120E+00
  10.307  0.359E+00  0.120E+00  0.119E+00  0.119E+00
  10.327  0.358E+00  0.120E+00  0.119E+00  0.119E+00
  10.347  0.349E+00  0.117E+00  0.116E+00  0.116E+00
  10.367  0.348E+00  0.116E+00  0.116E+00  0.116E+00
  10.387  0.351E+00  0.117E+00  0.117E+00  0.117E+00
  10.407  0.361E+00  0.120E+00  0.120E+00  0.120E+00
  10.427  0.372E+00  0.124E+00  0.124E+00  0.124E+00
  10.447  0.388E+00  0.129E+00  0.129E+00  0.129E+00
  10.467  0.426E+00  0.142E+00  0.142E+00  0.142E+00
  10.487  0.470E+00  0.157E+00  0.157E+00  0.157E+00
  10.507  0.462E+00  0.154E+00  0.154E+00  0.154E+00
  10.527  0.429E+00  0.143E+00  0.143E+00  0.143E+00
  10.547  0.397E+00  0.132E+00  0.132E+00  0.132E+00
  10.567  0.367E+00  0.122E+00  0.122E+00  0.122E+00
  10.587  0.349E+00  0.117E+00  0.116E+00  0.116E+00
  10.607  0.328E+00  0.109E+00  0.109E+00  0.109E+00
  10.627  0.325E+00  0.109E+00  0.108E+00  0.108E+00
  10.647  0.326E+00  0.109E+00  0.109E+00  0.109E+00
  10.667  0.329E+00  0.110E+00  0.110E+00  0.110E+00
  10.687  0.332E+00  0.111E+00  0.111E+00  0.111E+00
  10.707  0.337E+00  0.112E+00  0.112E+00  0.112E+00
  10.727  0.346E+00  0.115E+00  0.115E+00  0.115E+00
  10.747  0.359E+00  0.120E+00  0.120E+00  0.120E+00
  10.767  0.353E+00  0.118E+00  0.118E+00  0.118E+00
  10.787  0.352E+00  0.117E+00  0.117E+00  0.117E+00
  10.807  0.355E+00  0.118E+00  0.118E+00  0.118E+00
  10.827  0.361E+00  0.120E+00  0.120E+00  0.120E+00
  10.847  0.370E+00  0.123E+00  0.123E+00  0.123E+00
  10.867  0.378E+00  0.126E+00  0.126E+00  0.126E+00
  10.887  0.383E+00  0.128E+00  0.128E+00  0.128E+00
  10.907  0.386E+00  0.128E+00  0.129E+00  0.129E+00
  10.927  0.377E+00  0.126E+00  0.126E+00  0.126E+00
  10.947  0.361E+00  0.120E+00  0.120E+00  0.120E+00
  10.967  0.357E+00  0.119E+00  0.119E+00  0.119E+00
  10.987  0.346E+00  0.115E+00  0.115E+00  0.115E+00
  11.007  0.337E+00  0.112E+00  0.112E+00  0.112E+00
  11.027  0.329E+00  0.110E+00  0.110E+00  0.110E+00
  11.047  0.324E+00  0.108E+00  0.108E+00  0.108E+00
  11.067  0.320E+00  0.107E+00  0.107E+00  0.107E+00
  11.087  0.317E+00  0.106E+00  0.106E+00  0.106E+00
  11.107  0.315E+00  0.105E+00  0.105E+00  0.105E+00
  11.127  0.320E+00  0.107E+00  0.107E+00  0.107E+00
  11.147  0.321E+00  0.107E+00  0.107E+00  0.107E+00
  11.167  0.313E+00  0.104E+00  0.104E+00  0.104E+00
  11.187  0.320E+00  0.107E+00  0.107E+00  0.107E+00
  11.207  0.328E+00  0.109E+00  0.109E+00  0.109E+00
  11.227  0.334E+00  0.111E+00  0.111E+00  0.111E+00
  11.247  0.331E+00  0.110E+00  0.110E+00  0.110E+00
  11.267  0.327E+00  0.109E+00  0.109E+00  0.109E+00
  11.287  0.321E+00  0.107E+00  0.107E+00  0.107E+00
  11.307  0.316E+00  0.105E+00  0.105E+00  0.105E+00
  11.327  0.310E+00  0.103E+00  0.103E+00  0.103E+00
  11.347  0.306E+00  0.102E+00  0.102E+00  0.102E+00
  11.367  0.304E+00  0.101E+00  0.101E+00  0.101E+00
  11.387  0.303E+00  0.101E+00  0.101E+00  0.101E+00
  11.407  0.304E+00  0.101E+00  0.101E+00  0.101E+00
  11.427  0.307E+00  0.103E+00  0.102E+00  0.102E+00
  11.447  0.305E+00  0.102E+00  0.101E+00  0.101E+00
  11.467  0.300E+00  0.100E+00  0.100E+00  0.100E+00
  11.487  0.305E+00  0.102E+00  0.102E+00  0.102E+00
  11.507  0.308E+00  0.103E+00  0.103E+00  0.103E+00
  11.527  0.305E+00  0.102E+00  0.102E+00  0.102E+00
  11.547  0.306E+00  0.102E+00  0.102E+00  0.102E+00
  11.567  0.306E+00  0.102E+00  0.102E+00  0.102E+00
  11.587  0.304E+00  0.101E+00  0.101E+00  0.101E+00
  11.607  0.300E+00  0.100E+00  0.100E+00  0.100E+00
  11.627  0.295E+00  0.982E-01  0.983E-01  0.983E-01
  11.647  0.297E+00  0.989E-01  0.990E-01  0.990E-01
  11.667  0.300E+00  0.100E+00  0.100E+00  0.100E+00
  11.687  0.303E+00  0.101E+00  0.101E+00  0.101E+00
  11.707  0.304E+00  0.101E+00  0.102E+00  0.102E+00
  11.727  0.299E+00  0.995E-01  0.997E-01  0.997E-01
  11.747  0.294E+00  0.978E-01  0.980E-01  0.980E-01
  11.767  0.289E+00  0.962E-01  0.964E-01  0.964E-01
  11.787  0.285E+00  0.948E-01  0.949E-01  0.949E-01
  11.807  0.281E+00  0.936E-01  0.937E-01  0.937E-01
  11.827  0.280E+00  0.932E-01  0.934E-01  0.934E-01
  11.847  0.279E+00  0.928E-01  0.929E-01  0.929E-01
  11.867  0.276E+00  0.921E-01  0.922E-01  0.922E-01
  11.887  0.274E+00  0.913E-01  0.914E-01  0.914E-01
  11.907  0.269E+00  0.896E-01  0.897E-01  0.897E-01
  11.927  0.267E+00  0.890E-01  0.891E-01  0.891E-01
  11.947  0.265E+00  0.881E-01  0.882E-01  0.882E-01
  11.967  0.259E+00  0.863E-01  0.863E-01  0.863E-01
  11.987  0.252E+00  0.840E-01  0.840E-01  0.840E-01
  12.007  0.248E+00  0.825E-01  0.825E-01  0.825E-01
  12.027  0.246E+00  0.820E-01  0.819E-01  0.819E-01
  12.047  0.244E+00  0.815E-01  0.814E-01  0.814E-01
  12.067  0.244E+00  0.814E-01  0.813E-01  0.813E-01
  12.087  0.244E+00  0.815E-01  0.814E-01  0.814E-01
  12.107  0.244E+00  0.815E-01  0.814E-01  0.814E-01
  12.127  0.245E+00  0.818E-01  0.817E-01  0.817E-01
  12.147  0.247E+00  0.825E-01  0.823E-01  0.823E-01
  12.167  0.250E+00  0.833E-01  0.832E-01  0.832E-01
  12.187  0.250E+00  0.835E-01  0.833E-01  0.833E-01
  12.207  0.247E+00  0.824E-01  0.822E-01  0.822E-01
  12.227  0.241E+00  0.805E-01  0.804E-01  0.804E-01
  12.247  0.234E+00  0.781E-01  0.780E-01  0.780E-01
  12.267  0.226E+00  0.755E-01  0.754E-01  0.754E-01
  12.287  0.220E+00  0.735E-01  0.734E-01  0.734E-01
  12.307  0.217E+00  0.723E-01  0.722E-01  0.722E-01
  12.327  0.215E+00  0.718E-01  0.717E-01  0.717E-01
  12.347  0.215E+00  0.716E-01  0.715E-01  0.715E-01
  12.367  0.214E+00  0.715E-01  0.714E-01  0.714E-01
  12.387  0.214E+00  0.715E-01  0.715E-01  0.715E-01
  12.407  0.215E+00  0.718E-01  0.718E-01  0.718E-01
  12.427  0.219E+00  0.730E-01  0.730E-01  0.730E-01
  12.447  0.228E+00  0.759E-01  0.759E-01  0.759E-01
  12.467  0.237E+00  0.791E-01  0.791E-01  0.791E-01
  12.487  0.247E+00  0.823E-01  0.824E-01  0.824E-01
  12.507  0.256E+00  0.853E-01  0.854E-01  0.854E-01
  12.527  0.261E+00  0.869E-01  0.871E-01  0.871E-01
  12.547  0.262E+00  0.871E-01  0.873E-01  0.873E-01
  12.567  0.263E+00  0.874E-01  0.876E-01  0.876E-01
  12.587  0.265E+00  0.883E-01  0.885E-01  0.885E-01
  12.607  0.267E+00  0.890E-01  0.892E-01  0.892E-01
  12.627  0.269E+00  0.895E-01  0.897E-01  0.897E-01
  12.647  0.271E+00  0.901E-01  0.903E-01  0.903E-01
  12.667  0.275E+00  0.915E-01  0.917E-01  0.917E-01
  12.687  0.279E+00  0.928E-01  0.930E-01  0.930E-01
  12.707  0.278E+00  0.925E-01  0.927E-01  0.927E-01
  12.727  0.274E+00  0.912E-01  0.913E-01  0.913E-01
  12.747  0.267E+00  0.890E-01  0.891E-01  0.891E-01
  12.767  0.258E+00  0.860E-01  0.861E-01  0.861E-01
  12.787  0.221E+00  0.735E-01  0.736E-01  0.736E-01
  12.807  0.204E+00  0.679E-01  0.679E-01  0.679E-01
  12.827  0.199E+00  0.662E-01  0.663E-01  0.663E-01
  12.847  0.195E+00  0.648E-01  0.649E-01  0.649E-01
  12.867  0.191E+00  0.636E-01  0.636E-01  0.636E-01
  12.887  0.188E+00  0.625E-01  0.625E-01  0.625E-01
  12.907  0.185E+00  0.616E-01  0.616E-01  0.616E-01
  12.927  0.182E+00  0.608E-01  0.607E-01  0.607E-01
  12.947  0.180E+00  0.600E-01  0.599E-01  0.599E-01
  12.967  0.178E+00  0.593E-01  0.592E-01  0.592E-01
  12.987  0.176E+00  0.586E-01  0.585E-01  0.585E-01
  13.007  0.174E+00  0.580E-01  0.579E-01  0.579E-01
  13.027  0.172E+00  0.574E-01  0.573E-01  0.573E-01
  13.047  0.170E+00  0.569E-01  0.567E-01  0.567E-01
  13.067  0.169E+00  0.563E-01  0.561E-01  0.561E-01
  13.087  0.167E+00  0.558E-01  0.556E-01  0.556E-01
  13.107  0.165E+00  0.552E-01  0.551E-01  0.551E-01
  13.127  0.164E+00  0.547E-01  0.546E-01  0.546E-01
  13.147  0.162E+00  0.542E-01  0.541E-01  0.541E-01
  13.167  0.161E+00  0.538E-01  0.537E-01  0.537E-01
  13.187  0.160E+00  0.533E-01  0.532E-01  0.532E-01
  13.207  0.158E+00  0.528E-01  0.527E-01  0.527E-01
  13.227  0.157E+00  0.523E-01  0.522E-01  0.522E-01
  13.247  0.155E+00  0.518E-01  0.517E-01  0.517E-01
  13.267  0.154E+00  0.513E-01  0.512E-01  0.512E-01
  13.287  0.152E+00  0.508E-01  0.507E-01  0.507E-01
  13.307  0.151E+00  0.502E-01  0.502E-01  0.502E-01
  13.327  0.149E+00  0.498E-01  0.497E-01  0.497E-01
  13.347  0.148E+00  0.493E-01  0.493E-01  0.493E-01
  13.367  0.147E+00  0.488E-01  0.488E-01  0.488E-01
  13.387  0.145E+00  0.483E-01  0.484E-01  0.484E-01
  13.407  0.144E+00  0.478E-01  0.479E-01  0.479E-01
  13.427  0.142E+00  0.473E-01  0.474E-01  0.474E-01
  13.447  0.141E+00  0.469E-01  0.470E-01  0.470E-01
  13.467  0.140E+00  0.465E-01  0.467E-01  0.467E-01
  13.487  0.138E+00  0.457E-01  0.459E-01  0.459E-01
  13.507  0.135E+00  0.447E-01  0.450E-01  0.450E-01
  13.527  0.133E+00  0.443E-01  0.445E-01  0.445E-01
  13.547  0.132E+00  0.439E-01  0.441E-01  0.441E-01
  13.567  0.131E+00  0.436E-01  0.438E-01  0.438E-01
  13.587  0.131E+00  0.435E-01  0.437E-01  0.437E-01
  13.607  0.131E+00  0.434E-01  0.436E-01  0.436E-01
  13.627  0.131E+00  0.436E-01  0.438E-01  0.438E-01
  13.647  0.132E+00  0.440E-01  0.441E-01  0.441E-01
  13.667  0.134E+00  0.445E-01  0.446E-01  0.446E-01
  13.687  0.135E+00  0.449E-01  0.449E-01  0.449E-01
  13.707  0.139E+00  0.461E-01  0.462E-01  0.462E-01
  13.727  0.144E+00  0.481E-01  0.482E-01  0.482E-01
  13.747  0.149E+00  0.497E-01  0.497E-01  0.497E-01
  13.767  0.157E+00  0.523E-01  0.523E-01  0.523E-01
  13.787  0.156E+00  0.519E-01  0.518E-01  0.518E-01
  13.807  0.147E+00  0.490E-01  0.489E-01  0.489E-01
  13.827  0.128E+00  0.427E-01  0.426E-01  0.426E-01
  13.847  0.123E+00  0.411E-01  0.410E-01  0.410E-01
  13.867  0.119E+00  0.396E-01  0.395E-01  0.395E-01
  13.887  0.114E+00  0.382E-01  0.381E-01  0.381E-01
  13.907  0.111E+00  0.369E-01  0.368E-01  0.368E-01
  13.927  0.107E+00  0.357E-01  0.356E-01  0.356E-01
  13.947  0.103E+00  0.343E-01  0.342E-01  0.342E-01
  13.967  0.978E-01  0.327E-01  0.325E-01  0.325E-01
  13.987  0.925E-01  0.309E-01  0.308E-01  0.308E-01
  14.007  0.877E-01  0.293E-01  0.292E-01  0.292E-01
  14.027  0.838E-01  0.280E-01  0.279E-01  0.279E-01
  14.047  0.805E-01  0.269E-01  0.268E-01  0.268E-01
  14.067  0.779E-01  0.260E-01  0.259E-01  0.259E-01
  14.087  0.758E-01  0.253E-01  0.252E-01  0.252E-01
  14.107  0.740E-01  0.247E-01  0.246E-01  0.246E-01
  14.127  0.726E-01  0.243E-01  0.242E-01  0.242E-01
  14.147  0.718E-01  0.240E-01  0.239E-01  0.239E-01
  14.167  0.710E-01  0.237E-01  0.237E-01  0.237E-01
  14.187  0.704E-01  0.235E-01  0.235E-01  0.235E-01
  14.207  0.699E-01  0.233E-01  0.233E-01  0.233E-01
  14.227  0.695E-01  0.232E-01  0.232E-01  0.232E-01
  14.247  0.690E-01  0.230E-01  0.230E-01  0.230E-01
  14.267  0.685E-01  0.228E-01  0.229E-01  0.229E-01
  14.287  0.680E-01  0.226E-01  0.227E-01  0.227E-01
  14.307  0.674E-01  0.225E-01  0.225E-01  0.225E-01
  14.327  0.668E-01  0.222E-01  0.223E-01  0.223E-01
  14.347  0.661E-01  0.220E-01  0.221E-01  0.221E-01
  14.367  0.655E-01  0.218E-01  0.219E-01  0.219E-01
  14.387  0.650E-01  0.216E-01  0.217E-01  0.217E-01
  14.407  0.645E-01  0.214E-01  0.216E-01  0.216E-01
  14.427  0.640E-01  0.212E-01  0.214E-01  0.214E-01
  14.447  0.634E-01  0.210E-01  0.212E-01  0.212E-01
  14.467  0.628E-01  0.208E-01  0.210E-01  0.210E-01
  14.487  0.620E-01  0.205E-01  0.207E-01  0.207E-01
  14.507  0.611E-01  0.203E-01  0.204E-01  0.204E-01
  14.527  0.601E-01  0.199E-01  0.201E-01  0.201E-01
  14.547  0.594E-01  0.197E-01  0.198E-01  0.198E-01
  14.567  0.589E-01  0.196E-01  0.197E-01  0.197E-01
  14.587  0.574E-01  0.191E-01  0.192E-01  0.192E-01
  14.607  0.551E-01  0.184E-01  0.184E-01  0.184E-01
  14.627  0.520E-01  0.173E-01  0.174E-01  0.174E-01
  14.647  0.498E-01  0.166E-01  0.166E-01  0.166E-01
  14.667  0.513E-01  0.171E-01  0.171E-01  0.171E-01
  14.687  0.515E-01  0.172E-01  0.172E-01  0.172E-01
  14.707  0.507E-01  0.169E-01  0.169E-01  0.169E-01
  14.727  0.493E-01  0.165E-01  0.164E-01  0.164E-01
  14.747  0.479E-01  0.160E-01  0.159E-01  0.159E-01
  14.767  0.465E-01  0.156E-01  0.155E-01  0.155E-01
  14.787  0.452E-01  0.151E-01  0.150E-01  0.150E-01
  14.807  0.439E-01  0.147E-01  0.146E-01  0.146E-01
  14.827  0.426E-01  0.143E-01  0.142E-01  0.142E-01
  14.847  0.414E-01  0.139E-01  0.138E-01  0.138E-01
  14.867  0.402E-01  0.135E-01  0.134E-01  0.134E-01
  14.887  0.391E-01  0.131E-01  0.130E-01  0.130E-01
  14.907  0.380E-01  0.127E-01  0.126E-01  0.126E-01
  14.927  0.369E-01  0.124E-01  0.123E-01  0.123E-01
  14.947  0.358E-01  0.120E-01  0.119E-01  0.119E-01
  14.967  0.348E-01  0.117E-01  0.116E-01  0.116E-01
  14.987  0.339E-01  0.113E-01  0.113E-01  0.113E-01
  15.007  0.329E-01  0.110E-01  0.110E-01  0.110E-01
  15.027  0.320E-01  0.107E-01  0.107E-01  0.107E-01
  15.047  0.312E-01  0.104E-01  0.104E-01  0.104E-01
  15.067  0.304E-01  0.101E-01  0.101E-01  0.101E-01
  15.087  0.296E-01  0.986E-02  0.987E-02  0.987E-02
  15.107  0.289E-01  0.961E-02  0.964E-02  0.964E-02
  15.127  0.282E-01  0.939E-02  0.943E-02  0.943E-02
  15.147  0.277E-01  0.918E-02  0.925E-02  0.925E-02
  15.167  0.272E-01  0.900E-02  0.909E-02  0.909E-02
  15.187  0.267E-01  0.884E-02  0.895E-02  0.895E-02
  15.207  0.264E-01  0.870E-02  0.884E-02  0.884E-02
  15.227  0.261E-01  0.859E-02  0.875E-02  0.875E-02
  15.247  0.259E-01  0.851E-02  0.869E-02  0.869E-02
  15.267  0.258E-01  0.845E-02  0.866E-02  0.866E-02
  15.287  0.252E-01  0.827E-02  0.847E-02  0.847E-02
  15.307  0.256E-01  0.843E-02  0.860E-02  0.860E-02
  15.327  0.260E-01  0.857E-02  0.871E-02  0.871E-02
  15.347  0.262E-01  0.868E-02  0.877E-02  0.877E-02
  15.367  0.263E-01  0.876E-02  0.879E-02  0.879E-02
  15.387  0.263E-01  0.881E-02  0.876E-02  0.876E-02
  15.407  0.262E-01  0.882E-02  0.869E-02  0.869E-02
  15.427  0.260E-01  0.878E-02  0.859E-02  0.859E-02
  15.447  0.256E-01  0.870E-02  0.846E-02  0.846E-02
  15.467  0.252E-01  0.859E-02  0.831E-02  0.831E-02
  15.487  0.256E-01  0.874E-02  0.842E-02  0.842E-02
  15.507  0.249E-01  0.842E-02  0.822E-02  0.822E-02
  15.527  0.212E-01  0.701E-02  0.708E-02  0.708E-02
  15.547  0.150E-01  0.485E-02  0.507E-02  0.507E-02
  15.567  0.121E-01  0.393E-02  0.407E-02  0.407E-02
  15.587  0.108E-01  0.356E-02  0.362E-02  0.362E-02
  15.607  0.960E-02  0.320E-02  0.320E-02  0.320E-02
  15.627  0.846E-02  0.285E-02  0.280E-02  0.280E-02
  15.647  0.738E-02  0.252E-02  0.243E-02  0.243E-02
  15.667  0.636E-02  0.219E-02  0.209E-02  0.209E-02
  15.687  0.541E-02  0.188E-02  0.176E-02  0.176E-02
  15.707  0.453E-02  0.159E-02  0.147E-02  0.147E-02
  15.727  0.371E-02  0.132E-02  0.120E-02  0.120E-02
  15.747  0.297E-02  0.107E-02  0.954E-03  0.954E-03
  15.767  0.231E-02  0.835E-03  0.738E-03  0.737E-03
  15.787  0.173E-02  0.629E-03  0.548E-03  0.548E-03
  15.807  0.122E-02  0.449E-03  0.386E-03  0.386E-03
  15.827  0.801E-03  0.297E-03  0.252E-03  0.252E-03
  15.847  0.466E-03  0.174E-03  0.146E-03  0.146E-03
  15.867  0.219E-03  0.828E-04  0.684E-04  0.683E-04
  15.887  0.637E-04  0.242E-04  0.197E-04  0.197E-04
  15.907  0.118E-05  0.453E-06  0.365E-06  0.364E-06
  15.927  0.000E+00  0.000E+00  0.000E+00  0.000E+00
